File: output/3/bigblue-1.csv
Time,Voltage(V),Current(A),Energy(Wh),Capacity(Ah),Energy Proportion(%),Capacity Proportion(%),Irradiance(W/m2),Irradiance/100,Power(W),Efficiency(%),Power Score,Sun Score,Efficiency Score
00:00:00,0.0000,0.0000,0.0000,0.0000,0.00,0.00,120.0,1.2,0.0,0.0,12.0,0.0,12.0
00:01:20,2.7250,0.6512,0.0358,0.0130,0.27,0.38,114.3,1.143,1.77,0.88,11.4,16.9,-5.5
00:02:40,2.6940,0.6493,0.0744,0.0273,0.55,0.80,112.4,1.124,1.75,0.89,11.2,16.7,-5.5
00:04:00,2.6870,0.6482,0.1135,0.0418,0.84,1.22,112.0,1.12,1.74,0.89,11.2,16.6,-5.4
00:05:20,2.6680,0.6488,0.1523,0.0563,1.13,1.64,109.2,1.092,1.73,0.91,10.9,16.5,-5.6
00:06:40,2.6570,0.6617,0.1907,0.0708,1.41,2.06,110.9,1.109,1.76,0.91,11.1,16.8,-5.7
00:08:00,2.7400,1.0156,0.2389,0.0886,1.77,2.58,163.8,1.638,2.78,0.97,16.4,26.5,-10.1
00:09:20,2.6880,0.9544,0.3037,0.1122,2.25,3.27,161.3,1.613,2.57,0.91,16.1,24.5,-8.4
00:10:40,2.6390,0.8548,0.3553,0.1317,2.63,3.84,139.3,1.393,2.26,0.93,13.9,21.5,-7.6
00:12:00,2.6310,0.8706,0.4067,0.1511,3.01,4.41,142.3,1.423,2.29,0.92,14.2,21.8,-7.6
00:13:20,2.6110,0.8013,0.4859,0.1756,3.60,5.12,129.8,1.298,2.09,0.92,13.0,19.9,-6.9
00:14:40,4.9540,1.9860,0.5713,0.2025,4.24,5.90,722,7.22,9.84,0.78,72.2,93.7,-21.5
00:16:00,4.9450,1.9876,0.7899,0.2466,5.86,7.19,705,7.05,9.83,0.8,70.5,93.6,-23.1
00:17:20,4.9380,1.9882,1.0082,0.2908,7.47,8.48,688,6.88,9.82,0.82,68.8,93.5,-24.7
00:18:40,4.9360,1.9868,1.2262,0.3350,9.09,9.77,677,6.77,9.81,0.83,67.7,93.4,-25.7
00:20:00,4.9320,1.9876,1.4442,0.3792,10.71,11.05,661,6.61,9.8,0.85,66.1,93.3,-27.2
00:21:20,4.9300,1.9876,1.6620,0.4233,12.32,12.34,659,6.59,9.8,0.85,65.9,93.3,-27.4
00:22:40,4.9300,1.9869,1.8797,0.4675,13.94,13.63,654,6.54,9.8,0.86,65.4,93.3,-27.9
00:24:00,4.9300,1.9874,2.0974,0.5116,15.55,14.92,652,6.52,9.8,0.86,65.2,93.3,-28.1
00:25:20,4.9300,1.9871,2.3150,0.5558,17.16,16.20,648,6.48,9.8,0.86,64.8,93.3,-28.5
00:26:40,4.9300,1.9871,2.5327,0.5999,18.78,17.49,630,6.3,9.8,0.89,63.0,93.3,-30.3
00:28:00,4.9280,1.9872,2.7504,0.6441,20.39,18.78,613,6.13,9.79,0.91,61.3,93.2,-31.9
00:29:20,4.9260,1.9869,2.9679,0.6883,22.00,20.07,604,6.04,9.79,0.93,60.4,93.2,-32.8
00:30:40,4.9250,1.9866,3.1854,0.7324,23.62,21.35,606,6.06,9.78,0.92,60.6,93.1,-32.5
00:32:00,4.9240,1.9867,3.4027,0.7766,25.23,22.64,606,6.06,9.78,0.92,60.6,93.1,-32.5
00:33:20,4.9230,1.9862,3.6174,0.8207,26.82,23.93,587,5.87,9.78,0.95,58.7,93.1,-34.4
00:34:40,4.9260,1.9866,3.8347,0.8648,28.43,25.21,595,5.95,9.79,0.94,59.5,93.2,-33.7
00:36:00,4.9240,1.9871,4.0522,0.9090,30.04,26.50,597,5.97,9.78,0.94,59.7,93.1,-33.4
00:37:20,2.4840,0.5313,4.1637,0.9362,30.87,27.29,89.2,0.892,1.32,0.85,8.9,12.6,-3.7
00:38:40,2.5280,0.6862,4.1979,0.9498,31.12,27.69,123.3,1.233,1.73,0.8,12.3,16.5,-4.2
00:40:00,2.5440,0.7839,4.2425,0.9672,31.45,28.20,131.4,1.314,1.99,0.87,13.1,19.0,-5.9
00:41:20,4.9360,1.9865,4.4058,1.0041,32.66,29.27,604,6.04,9.81,0.93,60.4,93.4,-33.0
00:42:40,2.5520,0.7397,4.5180,1.0360,33.50,30.20,112.7,1.127,1.89,0.96,11.3,18.0,-6.7
00:44:00,4.9350,1.9855,4.6537,1.0710,34.50,31.22,548,5.48,9.8,1.02,54.8,93.3,-38.5
00:45:20,4.9320,1.9866,4.8715,1.1152,36.12,32.51,586,5.86,9.8,0.96,58.6,93.3,-34.7
00:46:40,4.9290,1.9870,5.0891,1.1593,37.73,33.80,575,5.75,9.79,0.97,57.5,93.2,-35.7
00:48:00,4.9260,1.9867,5.3066,1.2034,39.34,35.09,570,5.7,9.79,0.98,57.0,93.2,-36.2
00:49:20,4.9220,1.9850,5.5240,1.2476,40.95,36.37,566,5.66,9.77,0.99,56.6,93.0,-36.4
00:50:40,4.9190,1.9862,5.7412,1.2917,42.56,37.66,563,5.63,9.77,0.99,56.3,93.0,-36.7
00:52:00,4.8270,1.9870,5.9566,1.3359,44.16,38.95,554,5.54,9.59,0.99,55.4,91.3,-35.9
00:53:20,4.7760,1.9859,6.1679,1.3800,45.73,40.23,551,5.51,9.48,0.98,55.1,90.3,-35.2
00:54:40,4.7820,1.9865,6.3786,1.4242,47.29,41.52,550,5.5,9.5,0.99,55.0,90.5,-35.5
00:56:00,4.8080,1.9868,6.5902,1.4683,48.86,42.81,552,5.52,9.55,0.99,55.2,91.0,-35.8
00:57:20,4.7300,1.9855,6.8007,1.5124,50.42,44.09,543,5.43,9.39,0.99,54.3,89.4,-35.1
00:58:40,4.5930,1.9845,7.0062,1.5566,51.94,45.38,532,5.32,9.11,0.98,53.2,86.8,-33.6
01:00:00,4.5300,1.9861,7.2073,1.6007,53.43,46.67,527,5.27,9.0,0.98,52.7,85.7,-33.0
01:01:20,4.4650,1.9858,7.4053,1.6448,54.90,47.95,522,5.22,8.87,0.97,52.2,84.5,-32.3
01:02:40,4.3640,1.9830,7.5994,1.6889,56.34,49.24,514,5.14,8.65,0.96,51.4,82.4,-31.0
01:04:00,4.3110,1.9846,7.7894,1.7330,57.75,50.52,510,5.1,8.56,0.96,51.0,81.5,-30.5
01:05:20,4.1250,1.9746,7.9758,1.7770,59.13,51.81,503,5.03,8.15,0.93,50.3,77.6,-27.3
01:06:40,3.6950,1.8432,8.1548,1.8205,60.46,53.08,444,4.44,6.81,0.88,44.4,64.9,-20.5
01:08:00,2.5210,0.6874,8.1988,1.8376,60.78,53.57,114.0,1.14,1.73,0.87,11.4,16.5,-5.1
01:09:20,4.8560,1.9855,8.2968,1.8663,61.51,54.41,548,5.48,9.64,1.01,54.8,91.8,-37.0
01:10:40,4.7250,1.9861,8.5064,1.9105,63.07,55.70,541,5.41,9.38,0.99,54.1,89.3,-35.2
01:12:00,4.6800,1.9866,8.6933,1.9537,64.45,56.96,536,5.36,9.3,0.99,53.6,88.6,-35.0
01:13:20,4.4040,1.9836,8.8923,1.9978,65.93,58.24,524,5.24,8.74,0.95,52.4,83.2,-30.8
01:14:40,4.1390,1.9755,9.0788,2.0418,67.31,59.53,506,5.06,8.18,0.92,50.6,77.9,-27.3
01:16:00,3.9100,1.9486,9.2514,2.0853,68.59,60.79,485,4.85,7.62,0.9,48.5,72.6,-24.1
01:17:20,3.3620,1.6909,9.4039,2.1263,69.72,61.99,372,3.72,5.68,0.87,37.2,54.1,-16.9
01:18:40,3.8420,1.9124,9.5430,2.1657,70.75,63.14,448,4.48,7.35,0.94,44.8,70.0,-25.2
01:20:00,3.9500,1.9526,9.7106,2.2087,71.99,64.39,484,4.84,7.71,0.91,48.4,73.4,-25.0
01:21:20,3.8690,1.9281,9.8790,2.2518,73.24,65.65,469,4.69,7.46,0.91,46.9,71.0,-24.1
01:22:40,3.8080,1.8971,10.0421,2.2943,74.45,66.89,451,4.51,7.22,0.91,45.1,68.8,-23.7
01:24:00,3.7760,1.8811,10.2009,2.3362,75.63,68.11,442,4.42,7.1,0.92,44.2,67.6,-23.4
01:25:20,3.7390,1.8617,10.3576,2.3779,76.79,69.32,433,4.33,6.96,0.92,43.3,66.3,-23.0
01:26:40,3.4790,1.7434,10.5046,2.4182,77.88,70.50,386,3.86,6.07,0.9,38.6,57.8,-19.2
01:28:00,3.7070,1.8454,10.6492,2.4583,78.95,71.67,428,4.28,6.84,0.91,42.8,65.1,-22.3
01:29:20,3.7190,1.8518,10.8017,2.4993,80.08,72.87,428,4.28,6.89,0.92,42.8,65.6,-22.8
01:30:40,3.7270,1.8553,10.9555,2.5406,81.22,74.07,429,4.29,6.91,0.92,42.9,65.8,-22.9
01:32:00,3.6930,1.8397,11.1077,2.5816,82.35,75.27,421,4.21,6.79,0.92,42.1,64.7,-22.6
01:33:20,3.6610,1.8243,11.2572,2.6223,83.46,76.45,416,4.16,6.68,0.92,41.6,63.6,-22.0
01:34:40,3.6560,1.8229,11.4053,2.6628,84.56,77.63,416,4.16,6.66,0.91,41.6,63.4,-21.8
01:36:00,3.6570,1.8229,11.5517,2.7031,85.64,78.81,417,4.17,6.67,0.91,41.7,63.5,-21.8
01:37:20,3.3080,1.6713,11.6889,2.7422,86.66,79.95,355,3.55,5.53,0.89,35.5,52.7,-17.2
01:38:40,3.0470,1.5922,11.8049,2.7787,87.52,81.01,322,3.22,4.85,0.86,32.2,46.2,-14.0
01:40:00,2.8460,1.4884,11.8987,2.8113,88.22,81.96,280,2.8,4.24,0.87,28.0,40.4,-12.4
01:41:20,2.4330,0.5306,11.9648,2.8347,88.70,82.64,98.9,0.989,1.29,0.75,9.9,12.3,-2.4
01:42:40,2.4030,0.4065,11.9875,2.8441,88.87,82.92,71.0,0.71,0.98,0.79,7.1,9.3,-2.2
01:44:00,2.4240,0.4329,12.0101,2.8535,89.04,83.19,75.9,0.759,1.05,0.79,7.6,10.0,-2.4
01:45:20,2.4160,0.3845,12.0320,2.8625,89.20,83.45,68.0,0.68,0.93,0.78,6.8,8.9,-2.1
01:46:40,2.4130,0.3491,12.0514,2.8706,89.35,83.69,62.6,0.626,0.84,0.77,6.3,8.0,-1.7
01:48:00,2.4330,0.3785,12.0707,2.8785,89.49,83.92,67.2,0.672,0.92,0.78,6.7,8.8,-2.1
01:49:20,2.4590,0.4385,12.0932,2.8877,89.66,84.19,75.9,0.759,1.08,0.81,7.6,10.3,-2.7
01:50:40,2.4840,0.5064,12.1190,2.8982,89.85,84.49,88.0,0.88,1.26,0.82,8.8,12.0,-3.2
01:52:00,2.4950,0.5414,12.1479,2.9098,90.06,84.83,92.6,0.926,1.35,0.83,9.3,12.9,-3.6
01:53:20,2.8710,1.5125,12.2205,2.9361,90.60,85.60,290,2.9,4.34,0.86,29.0,41.3,-12.3
01:54:40,2.5210,0.8601,12.2984,2.9642,91.18,86.42,151.2,1.512,2.17,0.82,15.1,20.7,-5.6
01:56:00,2.5930,1.1147,12.3538,2.9859,91.59,87.05,196.1,1.961,2.89,0.84,19.6,27.5,-7.9
01:57:20,2.6630,1.2224,12.4075,3.0058,91.99,87.63,224,2.24,3.26,0.83,22.4,31.0,-8.6
01:58:40,2.6990,1.3665,12.4810,3.0334,92.53,88.44,258,2.58,3.69,0.82,25.8,35.1,-9.3
02:00:00,2.6340,1.1741,12.5416,3.0555,92.98,89.08,220,2.2,3.09,0.8,22.0,29.4,-7.4
02:01:20,2.5660,0.9976,12.6001,3.0782,93.42,89.74,179.0,1.79,2.56,0.82,17.9,24.4,-6.5
02:02:40,2.6300,1.0766,12.6548,3.0989,93.82,90.35,197.5,1.975,2.83,0.82,19.8,27.0,-7.2
02:04:00,2.6090,1.0906,12.7191,3.1234,94.30,91.06,196.5,1.965,2.85,0.83,19.7,27.1,-7.4
02:05:20,2.4490,0.6191,12.7724,3.1442,94.69,91.67,111.3,1.113,1.52,0.78,11.1,14.5,-3.4
02:06:40,2.4590,0.6183,12.8060,3.1579,94.94,92.07,109.9,1.099,1.52,0.79,11.0,14.5,-3.5
02:08:00,2.5200,0.7954,12.8432,3.1729,95.22,92.50,136.4,1.364,2.0,0.84,13.6,19.0,-5.4
02:09:20,2.4820,0.6727,12.8841,3.1892,95.52,92.98,119.9,1.199,1.67,0.8,12.0,15.9,-3.9
02:10:40,2.4820,0.6596,12.9203,3.2038,95.79,93.40,117.4,1.174,1.64,0.8,11.7,15.6,-3.9
02:12:00,2.4770,0.6265,12.9554,3.2180,96.05,93.82,112.2,1.122,1.55,0.79,11.2,14.8,-3.6
02:13:20,2.4970,0.6784,12.9907,3.2322,96.31,94.23,119.3,1.193,1.69,0.81,11.9,16.1,-4.2
02:14:40,2.5060,0.7078,13.0315,3.2484,96.61,94.71,126.8,1.268,1.77,0.8,12.7,16.9,-4.2
02:16:00,2.5000,0.6848,13.0704,3.2640,96.90,95.16,123.5,1.235,1.71,0.79,12.4,16.3,-3.9
02:17:20,2.4920,0.6486,13.1069,3.2786,97.17,95.58,117.4,1.174,1.62,0.79,11.7,15.4,-3.7
02:18:40,2.4910,0.6354,13.1422,3.2928,97.43,96.00,114.7,1.147,1.58,0.79,11.5,15.0,-3.5
02:20:00,2.4970,0.6450,13.1781,3.3071,97.70,96.42,117.8,1.178,1.61,0.78,11.8,15.3,-3.5
02:21:20,2.4980,0.6401,13.2134,3.3213,97.96,96.83,116.7,1.167,1.6,0.78,11.7,15.2,-3.5
02:22:40,2.5000,0.6389,13.2490,3.3355,98.23,97.24,116.5,1.165,1.6,0.78,11.7,15.2,-3.5
02:24:00,2.5070,0.6581,13.2853,3.3500,98.50,97.67,120.4,1.204,1.65,0.78,12.0,15.7,-3.7
02:25:20,2.5240,0.7157,13.3239,3.3654,98.78,98.11,130.6,1.306,1.81,0.79,13.1,17.2,-4.1
02:26:40,2.5440,0.7940,13.3675,3.3825,99.10,98.61,144.9,1.449,2.02,0.8,14.5,19.2,-4.7
02:28:00,2.5440,0.8162,13.4142,3.4009,99.45,99.15,150.6,1.506,2.08,0.79,15.1,19.8,-4.7
02:29:20,2.5350,0.7999,13.4602,3.4190,99.79,99.68,147.7,1.477,2.03,0.79,14.8,19.3,-4.5
02:30:20,2.5290,0.7843,13.4938,3.4322,100.04,100.06,147.4,1.474,1.98,0.77,14.7,18.9,-4.2