File: output/3/choetech-2.csv
Time,Voltage(V),Current(A),Energy(Wh),Capacity(Ah),Energy Proportion(%),Capacity Proportion(%),Irradiance(W/m2),Power(W),Power Score,Watts/oz,cW/oz,Sun Score,Irradiance/100,Efficiency(%)
00:00:00,0.0000,0.0000,0.0000,0.0000,0.00,0.00,893.0,0.0,0.0,0.0,0.0,89.3,8.93,0.0
00:00:40,4.5840,1.9934,0.0776,0.0169,0.81,0.79,899.0,9.14,60.9,0.54,5.4,89.9,8.99,0.83
00:01:20,4.5900,1.9919,0.1793,0.0390,1.87,1.83,902.0,9.14,60.9,0.54,5.4,90.2,9.02,0.83
00:02:00,4.5860,1.9903,0.2807,0.0612,2.92,2.87,901.0,9.13,60.9,0.54,5.4,90.1,9.01,0.83
00:02:40,4.5810,1.9906,0.3821,0.0833,3.98,3.91,894.0,9.12,60.8,0.54,5.4,89.4,8.94,0.84
00:03:20,4.5770,1.9906,0.4834,0.1054,5.03,4.95,880.0,9.11,60.7,0.54,5.4,88.0,8.8,0.85
00:04:00,4.5740,1.9900,0.5807,0.1275,6.05,5.99,886.0,9.1,60.7,0.54,5.4,88.6,8.86,0.84
00:04:40,4.5710,1.9886,0.6818,0.1496,7.10,7.03,902.0,9.09,60.6,0.54,5.4,90.2,9.02,0.83
00:05:20,3.8110,1.9150,0.7718,0.1711,8.03,8.04,678.0,7.3,48.7,0.43,4.3,67.8,6.78,0.88
00:06:00,4.5760,1.9889,0.8571,0.1915,8.92,9.00,570.0,9.1,60.7,0.54,5.4,57.0,5.7,1.31
00:06:40,2.7050,0.9415,0.8953,0.2049,9.32,9.63,383.0,2.55,17.0,0.15,1.5,38.3,3.83,0.55
00:07:20,3.0580,1.5746,0.9667,0.2230,10.06,10.48,234.0,4.82,32.1,0.28,2.8,23.4,2.34,1.69
00:08:00,4.5640,1.9896,1.0676,0.2451,11.11,11.52,861.0,9.08,60.5,0.54,5.4,86.1,8.61,0.86
00:08:40,4.5610,1.9891,1.1685,0.2672,12.16,12.56,864.0,9.07,60.5,0.53,5.3,86.4,8.64,0.86
00:09:20,4.5590,1.9890,1.2692,0.2893,13.21,13.59,862.0,9.07,60.5,0.53,5.3,86.2,8.62,0.86
00:10:00,4.5560,1.9893,1.3700,0.3115,14.26,14.63,864.0,9.06,60.4,0.53,5.3,86.4,8.64,0.86
00:10:40,4.5550,1.9891,1.4707,0.3335,15.31,15.67,865.0,9.06,60.4,0.53,5.3,86.5,8.65,0.86
00:11:20,4.5550,1.9890,1.5713,0.3557,16.36,16.71,865.0,9.06,60.4,0.53,5.3,86.5,8.65,0.86
00:12:00,4.5530,1.9886,1.6720,0.3778,17.40,17.75,865.0,9.05,60.3,0.53,5.3,86.5,8.65,0.86
00:12:40,4.5520,1.9891,1.7726,0.3999,18.45,18.79,867.0,9.05,60.3,0.53,5.3,86.7,8.67,0.86
00:13:20,4.5510,1.9888,1.8731,0.4220,19.50,19.83,869.0,9.05,60.3,0.53,5.3,86.9,8.69,0.85
00:14:00,4.5490,1.9890,1.9737,0.4440,20.54,20.86,870.0,9.05,60.3,0.53,5.3,87.0,8.7,0.85
00:14:40,4.5470,1.9884,2.0742,0.4661,21.59,21.90,872.0,9.04,60.3,0.53,5.3,87.2,8.72,0.85
00:15:20,4.5450,1.9886,2.1746,0.4882,22.64,22.94,869.0,9.04,60.3,0.53,5.3,86.9,8.69,0.85
00:16:00,4.5460,1.9878,2.2750,0.5103,23.68,23.98,867.0,9.04,60.3,0.53,5.3,86.7,8.67,0.85
00:16:40,4.5450,1.9882,2.3755,0.5324,24.73,25.02,866.0,9.04,60.3,0.53,5.3,86.6,8.66,0.86
00:17:20,4.5430,1.9878,2.4758,0.5545,25.77,26.05,866.0,9.03,60.2,0.53,5.3,86.6,8.66,0.85
00:18:00,4.5430,1.9882,2.5762,0.5766,26.82,27.09,863.0,9.03,60.2,0.53,5.3,86.3,8.63,0.86
00:18:40,4.5430,1.9883,2.6766,0.5987,27.86,28.13,865.0,9.03,60.2,0.53,5.3,86.5,8.65,0.86
00:19:20,4.5420,1.9884,2.7769,0.6208,28.91,29.17,862.0,9.03,60.2,0.53,5.3,86.2,8.62,0.86
00:20:00,4.5410,1.9882,2.8772,0.6429,29.95,30.21,864.0,9.03,60.2,0.53,5.3,86.4,8.64,0.86
00:20:40,4.5390,1.9884,2.9775,0.6650,30.99,31.24,865.0,9.03,60.2,0.53,5.3,86.5,8.65,0.86
00:21:20,4.5380,1.9887,3.0778,0.6871,32.04,32.28,869.0,9.02,60.1,0.53,5.3,86.9,8.69,0.85
00:22:00,4.5360,1.9888,3.1781,0.7092,33.08,33.32,867.0,9.02,60.1,0.53,5.3,86.7,8.67,0.85
00:22:40,4.5350,1.9883,3.2783,0.7313,34.12,34.36,867.0,9.02,60.1,0.53,5.3,86.7,8.67,0.85
00:23:20,4.5340,1.9885,3.3785,0.7534,35.17,35.40,860.0,9.02,60.1,0.53,5.3,86.0,8.6,0.86
00:24:00,4.5320,1.9883,3.4786,0.7755,36.21,36.43,859.0,9.01,60.1,0.53,5.3,85.9,8.59,0.86
00:24:40,4.5330,1.9879,3.5787,0.7975,37.25,37.47,855.0,9.01,60.1,0.53,5.3,85.5,8.55,0.86
00:25:20,4.5320,1.9885,3.6788,0.8196,38.29,38.51,849.0,9.01,60.1,0.53,5.3,84.9,8.49,0.87
00:26:00,4.5320,1.9882,3.7790,0.8417,39.34,39.55,846.0,9.01,60.1,0.53,5.3,84.6,8.46,0.87
00:26:40,4.5310,1.9882,3.8791,0.8638,40.38,40.59,844.0,9.01,60.1,0.53,5.3,84.4,8.44,0.88
00:27:20,4.5320,1.9881,3.9792,0.8859,41.42,41.62,844.0,9.01,60.1,0.53,5.3,84.4,8.44,0.88
00:28:00,4.5320,1.9882,4.0793,0.9080,42.46,42.66,842.0,9.01,60.1,0.53,5.3,84.2,8.42,0.88
00:28:40,4.5340,1.9885,4.1795,0.9301,43.51,43.70,843.0,9.02,60.1,0.53,5.3,84.3,8.43,0.88
00:29:20,4.5330,1.9886,4.2797,0.9522,44.55,44.74,844.0,9.01,60.1,0.53,5.3,84.4,8.44,0.88
00:30:00,4.5320,1.9887,4.3798,0.9743,45.59,45.78,838.0,9.01,60.1,0.53,5.3,83.8,8.38,0.88
00:30:40,4.5310,1.9882,4.4799,0.9964,46.63,46.82,836.0,9.01,60.1,0.53,5.3,83.6,8.36,0.88
00:31:20,4.5300,1.9884,4.5800,1.0185,47.68,47.85,837.0,9.01,60.1,0.53,5.3,83.7,8.37,0.88
00:32:00,4.5300,1.9886,4.6801,1.0406,48.72,48.89,841.0,9.01,60.1,0.53,5.3,84.1,8.41,0.88
00:32:40,4.5290,1.9882,4.7802,1.0627,49.76,49.93,842.0,9.0,60.0,0.53,5.3,84.2,8.42,0.88
00:33:20,4.5280,1.9882,4.8802,1.0848,50.80,50.97,845.0,9.0,60.0,0.53,5.3,84.5,8.45,0.87
00:34:00,4.5270,1.9879,4.9802,1.1069,51.84,52.01,850.0,9.0,60.0,0.53,5.3,85.0,8.5,0.87
00:34:40,4.5270,1.9876,5.0802,1.1289,52.88,53.04,862.0,9.0,60.0,0.53,5.3,86.2,8.62,0.86
00:35:20,4.5250,1.9879,5.1802,1.1510,53.92,54.08,864.0,9.0,60.0,0.53,5.3,86.4,8.64,0.85
00:36:00,4.5250,1.9875,5.2801,1.1731,54.96,55.12,866.0,8.99,59.9,0.53,5.3,86.6,8.66,0.85
00:36:40,4.5260,1.9877,5.3800,1.1952,56.00,56.16,861.0,9.0,60.0,0.53,5.3,86.1,8.61,0.86
00:37:20,4.5260,1.9878,5.4800,1.2173,57.04,57.19,847.0,9.0,60.0,0.53,5.3,84.7,8.47,0.87
00:38:00,4.5260,1.9881,5.5800,1.2394,58.08,58.23,864.0,9.0,60.0,0.53,5.3,86.4,8.64,0.85
00:38:40,4.5260,1.9873,5.6799,1.2614,59.12,59.27,866.0,8.99,59.9,0.53,5.3,86.6,8.66,0.85
00:39:20,4.5270,1.9874,5.7799,1.2835,60.16,60.31,862.0,9.0,60.0,0.53,5.3,86.2,8.62,0.86
00:40:00,4.5270,1.9879,5.8799,1.3056,61.21,61.34,853.0,9.0,60.0,0.53,5.3,85.3,8.53,0.86
00:40:40,4.5270,1.9878,5.9798,1.3277,62.25,62.38,860.0,9.0,60.0,0.53,5.3,86.0,8.6,0.86
00:41:20,4.5270,1.9872,6.0798,1.3498,63.29,63.42,853.0,9.0,60.0,0.53,5.3,85.3,8.53,0.86
00:42:00,4.5260,1.9874,6.1798,1.3719,64.33,64.46,851.0,8.99,59.9,0.53,5.3,85.1,8.51,0.87
00:42:40,4.5260,1.9878,6.2797,1.3940,65.37,65.50,849.0,9.0,60.0,0.53,5.3,84.9,8.49,0.87
00:43:20,4.5260,1.9876,6.3797,1.4160,66.41,66.53,849.0,9.0,60.0,0.53,5.3,84.9,8.49,0.87
00:44:00,4.5270,1.9879,6.4797,1.4381,67.45,67.57,847.0,9.0,60.0,0.53,5.3,84.7,8.47,0.87
00:44:40,4.5270,1.9878,6.5796,1.4602,68.49,68.61,851.0,9.0,60.0,0.53,5.3,85.1,8.51,0.87
00:45:20,4.5290,1.9881,6.6796,1.4823,69.53,69.65,844.0,9.0,60.0,0.53,5.3,84.4,8.44,0.87
00:46:00,4.5290,1.9875,6.7797,1.5044,70.57,70.68,846.0,9.0,60.0,0.53,5.3,84.6,8.46,0.87
00:46:40,4.5280,1.9880,6.8797,1.5265,71.61,71.72,846.0,9.0,60.0,0.53,5.3,84.6,8.46,0.87
00:47:20,4.5270,1.9873,6.9797,1.5486,72.65,72.76,845.0,9.0,60.0,0.53,5.3,84.5,8.45,0.87
00:48:00,4.5300,1.9877,7.0797,1.5706,73.69,73.80,843.0,9.0,60.0,0.53,5.3,84.3,8.43,0.88
00:48:40,4.5310,1.9878,7.1797,1.5927,74.74,74.83,844.0,9.01,60.1,0.53,5.3,84.4,8.44,0.88
00:49:20,4.5310,1.9877,7.2798,1.6148,75.78,75.87,842.0,9.01,60.1,0.53,5.3,84.2,8.42,0.88
00:50:00,4.5310,1.9878,7.3799,1.6369,76.82,76.91,846.0,9.01,60.1,0.53,5.3,84.6,8.46,0.87
00:50:40,4.5320,1.9872,7.4800,1.6590,77.86,77.95,845.0,9.01,60.1,0.53,5.3,84.5,8.45,0.87
00:51:20,4.5330,1.9884,7.5801,1.6811,78.90,78.99,845.0,9.01,60.1,0.53,5.3,84.5,8.45,0.87
00:52:00,4.5340,1.9886,7.6803,1.7032,79.95,80.02,844.0,9.02,60.1,0.53,5.3,84.4,8.44,0.88
00:52:40,4.5350,1.9883,7.7805,1.7253,80.99,81.06,846.0,9.02,60.1,0.53,5.3,84.6,8.46,0.87
00:53:20,4.5340,1.9879,7.8806,1.7474,82.03,82.10,849.0,9.01,60.1,0.53,5.3,84.9,8.49,0.87
00:54:00,4.5320,1.9879,7.9808,1.7694,83.07,83.14,848.0,9.01,60.1,0.53,5.3,84.8,8.48,0.87
00:54:40,4.5320,1.9878,8.0809,1.7915,84.12,84.18,845.0,9.01,60.1,0.53,5.3,84.5,8.45,0.87
00:55:20,4.5320,1.9874,8.1810,1.8136,85.16,85.21,839.0,9.01,60.1,0.53,5.3,83.9,8.39,0.88
00:56:00,4.5310,1.9879,8.2810,1.8357,86.20,86.25,837.0,9.01,60.1,0.53,5.3,83.7,8.37,0.88
00:56:40,4.5300,1.9873,8.3811,1.8578,87.24,87.29,837.0,9.0,60.0,0.53,5.3,83.7,8.37,0.88
00:57:20,4.5300,1.9878,8.4812,1.8799,88.28,88.33,834.0,9.0,60.0,0.53,5.3,83.4,8.34,0.88
00:58:00,4.5310,1.9874,8.5812,1.9020,89.32,89.36,833.0,9.0,60.0,0.53,5.3,83.3,8.33,0.89
00:58:40,4.5300,1.9876,8.6813,1.9240,90.37,90.40,836.0,9.0,60.0,0.53,5.3,83.6,8.36,0.88
00:59:20,4.5290,1.9878,8.7813,1.9461,91.41,91.44,840.0,9.0,60.0,0.53,5.3,84.0,8.4,0.88
01:00:00,4.5290,1.9876,8.8813,1.9682,92.45,92.48,839.0,9.0,60.0,0.53,5.3,83.9,8.39,0.88
01:00:40,4.5300,1.9881,8.9813,1.9903,93.49,93.51,841.0,9.01,60.1,0.53,5.3,84.1,8.41,0.88
01:01:20,4.5300,1.9874,9.0814,2.0124,94.53,94.55,841.0,9.0,60.0,0.53,5.3,84.1,8.41,0.88
01:02:00,4.5310,1.9876,9.1814,2.0345,95.57,95.59,838.0,9.01,60.1,0.53,5.3,83.8,8.38,0.88
01:02:40,4.5300,1.9880,9.2815,2.0565,96.61,96.63,837.0,9.01,60.1,0.53,5.3,83.7,8.37,0.88
01:03:20,4.5310,1.9877,9.3816,2.0786,97.66,97.66,837.0,9.01,60.1,0.53,5.3,83.7,8.37,0.88
01:04:00,4.5320,1.9884,9.4817,2.1007,98.70,98.70,835.0,9.01,60.1,0.53,5.3,83.5,8.35,0.88
01:04:40,4.5310,1.9883,9.5818,2.1228,99.74,99.74,824.0,9.01,60.1,0.53,5.3,82.4,8.24,0.9
01:05:00,4.5250,1.9876,9.6318,2.1339,100.26,100.26,836.0,8.99,59.9,0.53,5.3,83.6,8.36,0.88