File: output/3/nekteck-1.csv
Time,Voltage(V),Current(A),Energy(Wh),Capacity(Ah),Energy Proportion(%),Capacity Proportion(%),Irradiance(W/m2),Power(W),Power Score,Sun Score
00:00:00,4.6950,1.9888,0.0259,0.0055,0.12,0.11,0.0,9.34,93.4,0.0
00:01:10,4.7040,1.9882,0.2079,0.0442,0.99,0.90,0.0,9.35,93.5,0.0
00:02:20,4.7010,1.9880,0.3897,0.0829,1.86,1.68,0.0,9.35,93.5,0.0
00:03:30,4.6990,1.9878,0.5713,0.1215,2.72,2.46,0.0,9.34,93.4,0.0
00:04:40,4.6960,1.9872,0.7529,0.1602,3.59,3.25,0.0,9.33,93.3,0.0
00:05:50,4.6950,1.9878,0.9343,0.1988,4.45,4.03,0.0,9.33,93.3,0.0
00:07:00,4.6940,1.9880,1.1157,0.2374,5.32,4.81,0.0,9.33,93.3,0.0
00:08:10,4.6920,1.9878,1.2971,0.2761,6.18,5.60,0.0,9.33,93.3,0.0
00:09:20,4.6890,1.9885,1.4784,0.3148,7.05,6.38,0.0,9.32,93.2,0.0
00:10:30,4.6900,1.9872,1.6597,0.3534,7.91,7.16,0.0,9.32,93.2,0.0
00:11:40,4.6860,1.9871,1.8408,0.3920,8.78,7.95,0.0,9.31,93.1,0.0
00:12:50,4.6880,1.9877,2.0219,0.4307,9.64,8.73,0.0,9.32,93.2,0.0
00:14:00,4.6860,1.9882,2.2031,0.4693,10.50,9.51,0.0,9.32,93.2,0.0
00:15:10,4.6840,1.9878,2.3841,0.5080,11.37,10.30,0.0,9.31,93.1,0.0
00:16:20,4.6850,1.9873,2.5652,0.5466,12.23,11.08,0.0,9.31,93.1,0.0
00:17:30,4.6860,1.9874,2.7462,0.5853,13.09,11.86,0.0,9.31,93.1,0.0
00:18:40,4.6860,1.9878,2.9273,0.6239,13.96,12.64,0.0,9.31,93.1,0.0
00:19:50,4.6860,1.9876,3.1084,0.6626,14.82,13.43,0.0,9.31,93.1,0.0
00:21:00,4.6870,1.9874,3.2896,0.7012,15.68,14.21,0.0,9.31,93.1,0.0
00:22:10,4.6850,1.9879,3.4707,0.7399,16.55,14.99,0.0,9.31,93.1,0.0
00:23:20,4.6850,1.9874,3.6518,0.7785,17.41,15.78,0.0,9.31,93.1,0.0
00:24:30,4.6870,1.9876,3.8329,0.8172,18.27,16.56,0.0,9.32,93.2,0.0
00:25:40,4.6870,1.9884,4.0141,0.8558,19.14,17.34,0.0,9.32,93.2,0.0
00:26:50,4.6870,1.9879,4.1953,0.8945,20.00,18.13,0.0,9.32,93.2,0.0
00:28:00,4.6870,1.9877,4.3764,0.9331,20.87,18.91,0.0,9.32,93.2,0.0
00:29:10,4.6850,1.9879,4.5576,0.9718,21.73,19.70,0.0,9.31,93.1,0.0
00:30:20,4.6830,1.9879,4.7386,1.0104,22.59,20.48,0.0,9.31,93.1,0.0
00:31:30,4.6820,1.9867,4.9195,1.0491,23.46,21.26,0.0,9.3,93.0,0.0
00:32:40,4.6830,1.9873,5.1005,1.0877,24.32,22.04,0.0,9.31,93.1,0.0
00:33:50,4.6840,1.9873,5.2815,1.1263,25.18,22.83,0.0,9.31,93.1,0.0
00:35:00,4.6870,1.9875,5.4625,1.1650,26.04,23.61,0.0,9.32,93.2,0.0
00:36:10,4.6860,1.9877,5.6437,1.2036,26.91,24.39,0.0,9.31,93.1,0.0
00:37:20,4.6870,1.9875,5.8248,1.2423,27.77,25.18,0.0,9.32,93.2,0.0
00:38:30,4.6860,1.9875,6.0059,1.2809,28.64,25.96,0.0,9.31,93.1,0.0
00:39:40,4.6850,1.9875,6.1870,1.3196,29.50,26.74,0.0,9.31,93.1,0.0
00:40:50,4.6830,1.9877,6.3680,1.3582,30.36,27.53,0.0,9.31,93.1,0.0
00:42:00,4.6830,1.9869,6.5490,1.3969,31.22,28.31,0.0,9.3,93.0,0.0
00:43:10,4.6820,1.9875,6.7299,1.4355,32.09,29.09,0.0,9.31,93.1,0.0
00:44:20,4.6820,1.9872,6.9108,1.4741,32.95,29.88,0.0,9.3,93.0,0.0
00:45:30,4.6820,1.9876,7.0917,1.5128,33.81,30.66,0.0,9.31,93.1,0.0
00:46:40,4.6830,1.9875,7.2727,1.5514,34.67,31.44,0.0,9.31,93.1,0.0
00:47:50,4.6830,1.9877,7.4537,1.5901,35.54,32.23,0.0,9.31,93.1,0.0
00:49:00,4.6820,1.9872,7.6347,1.6287,36.40,33.01,0.0,9.3,93.0,0.0
00:50:10,4.6820,1.9873,7.8156,1.6674,37.26,33.79,0.0,9.3,93.0,0.0
00:51:20,4.6840,1.9877,7.9966,1.7060,38.13,34.58,0.0,9.31,93.1,0.0
00:52:30,4.6820,1.9876,8.1775,1.7446,38.99,35.36,0.0,9.31,93.1,0.0
00:53:40,4.6820,1.9870,8.3584,1.7833,39.85,36.14,0.0,9.3,93.0,0.0
00:54:50,4.6810,1.9874,8.5393,1.8219,40.71,36.93,0.0,9.3,93.0,0.0
00:56:00,4.6810,1.9873,8.7202,1.8606,41.58,37.71,0.0,9.3,93.0,0.0
00:57:10,4.6780,1.9874,8.9010,1.8992,42.44,38.49,0.0,9.3,93.0,0.0
00:58:20,4.6790,1.9871,9.0818,1.9379,43.30,39.28,0.0,9.3,93.0,0.0
00:59:30,4.6800,1.9872,9.2626,1.9765,44.16,40.06,0.0,9.3,93.0,0.0
01:00:40,4.6800,1.9871,9.4434,2.0151,45.02,40.84,0.0,9.3,93.0,0.0
01:01:50,4.6780,1.9876,9.6243,2.0538,45.89,41.62,0.0,9.3,93.0,0.0
01:03:00,4.6750,1.9873,9.8050,2.0924,46.75,42.41,0.0,9.29,92.9,0.0
01:04:10,4.6750,1.9865,9.9856,2.1311,47.61,43.19,0.0,9.29,92.9,0.0
01:05:20,4.6790,1.9874,10.1663,2.1697,48.47,43.97,0.0,9.3,93.0,0.0
01:06:30,4.6820,1.9876,10.3472,2.2083,49.33,44.76,0.0,9.31,93.1,0.0
01:07:40,4.6820,1.9876,10.5282,2.2470,50.20,45.54,0.0,9.31,93.1,0.0
01:08:50,4.6840,1.9876,10.7092,2.2856,51.06,46.32,0.0,9.31,93.1,0.0
01:10:00,4.6820,1.9876,10.8902,2.3243,51.92,47.11,0.0,9.31,93.1,0.0
01:11:10,4.6850,1.9879,11.0713,2.3629,52.79,47.89,0.0,9.31,93.1,0.0
01:12:20,4.6870,1.9878,11.2524,2.4016,53.65,48.67,0.0,9.32,93.2,0.0
01:13:30,4.6850,1.9877,11.4335,2.4403,54.51,49.46,0.0,9.31,93.1,0.0
01:14:40,4.6860,1.9872,11.6145,2.4789,55.38,50.24,0.0,9.31,93.1,0.0
01:15:50,4.6850,1.9877,11.7957,2.5176,56.24,51.02,0.0,9.31,93.1,0.0
01:17:00,4.6840,1.9890,11.9768,2.5562,57.10,51.81,0.0,9.32,93.2,0.0
01:18:10,4.6820,1.9867,12.1577,2.5949,57.97,52.59,0.0,9.3,93.0,0.0
01:19:20,4.6820,1.9878,12.3387,2.6335,58.83,53.37,0.0,9.31,93.1,0.0
01:20:30,4.6830,1.9879,12.5197,2.6722,59.69,54.16,0.0,9.31,93.1,0.0
01:21:40,4.6850,1.9882,12.7007,2.7108,60.55,54.94,0.0,9.31,93.1,0.0
01:22:50,4.6830,1.9877,12.8818,2.7495,61.42,55.72,0.0,9.31,93.1,0.0
01:24:00,4.6810,1.9875,13.0627,2.7881,62.28,56.51,0.0,9.3,93.0,0.0
01:25:10,4.6800,1.9874,13.2436,2.8268,63.14,57.29,0.0,9.3,93.0,0.0
01:26:20,4.6770,1.9882,13.4244,2.8654,64.01,58.07,0.0,9.3,93.0,0.0
01:27:30,4.6420,1.9883,13.6047,2.9041,64.86,58.86,0.0,9.23,92.3,0.0
01:28:40,4.6800,1.9878,13.7842,2.9427,65.72,59.64,0.0,9.3,93.0,0.0
01:29:50,4.6790,1.9881,13.9651,2.9813,66.58,60.42,0.0,9.3,93.0,0.0
01:31:00,4.4740,1.9872,14.1417,3.0200,67.43,61.21,0.0,8.89,88.9,0.0
01:32:10,4.3190,1.9869,14.3104,3.0586,68.23,61.99,0.0,8.58,85.8,0.0
01:33:20,4.1720,1.9885,14.4753,3.0973,69.02,62.77,0.0,8.3,83.0,0.0
01:34:30,4.2640,1.9870,14.6393,3.1359,69.80,63.56,0.0,8.47,84.7,0.0
01:35:40,4.0030,1.9854,14.7986,3.1745,70.56,64.34,0.0,7.95,79.5,0.0
01:36:50,3.9420,1.9701,14.9512,3.2130,71.29,65.12,0.0,7.77,77.7,0.0
01:38:00,3.9490,1.9738,15.1026,3.2513,72.01,65.90,0.0,7.79,77.9,0.0
01:39:10,3.9330,1.9661,15.2535,3.2896,72.73,66.67,0.0,7.73,77.3,0.0
01:40:20,3.9350,1.9677,15.4045,3.3280,73.45,67.45,0.0,7.74,77.4,0.0
01:41:30,3.9300,1.9650,15.5548,3.3662,74.16,68.22,0.0,7.72,77.2,0.0
01:42:40,3.9410,1.9708,15.7055,3.4045,74.88,69.00,0.0,7.77,77.7,0.0
01:43:50,3.9350,1.9670,15.8566,3.4428,75.60,69.78,0.0,7.74,77.4,0.0
01:45:00,2.5600,0.5710,15.9853,3.4766,76.22,70.46,0.0,1.46,14.6,0.0
01:46:10,2.5580,0.5656,16.0049,3.4844,76.31,70.62,0.0,1.45,14.5,0.0
01:47:20,3.8950,1.9448,16.1385,3.5199,76.95,71.34,0.0,7.57,75.7,0.0
01:48:30,3.8530,1.9223,16.2832,3.5574,77.64,72.10,0.0,7.41,74.1,0.0
01:49:40,3.8660,1.9297,16.4279,3.5949,78.33,72.86,0.0,7.46,74.6,0.0
01:50:50,3.8210,1.9053,16.5712,3.6322,79.01,73.62,0.0,7.28,72.8,0.0
01:52:00,3.7940,1.8920,16.7117,3.6691,79.68,74.36,0.0,7.18,71.8,0.0
01:53:10,3.7740,1.8825,16.8507,3.7058,80.34,75.11,0.0,7.1,71.0,0.0
01:54:20,3.7060,1.8395,16.9822,3.7415,80.97,75.83,0.0,6.82,68.2,0.0
01:55:30,3.6630,1.8223,17.1139,3.7772,81.60,76.55,0.0,6.68,66.8,0.0
01:56:40,3.6630,1.8214,17.2432,3.8125,82.21,77.27,0.0,6.67,66.7,0.0
01:57:50,3.6680,1.8246,17.3737,3.8480,82.83,77.99,0.0,6.69,66.9,0.0
01:59:00,3.6680,1.8216,17.5036,3.8834,83.45,78.71,0.0,6.68,66.8,0.0
02:00:10,3.6520,1.8167,17.6330,3.9188,84.07,79.42,0.0,6.63,66.3,0.0
02:01:20,3.6660,1.8228,17.7625,3.9542,84.69,80.14,0.0,6.68,66.8,0.0
02:02:30,3.6580,1.8150,17.8920,3.9896,85.31,80.86,0.0,6.64,66.4,0.0
02:03:40,3.6330,1.8090,18.0205,4.0249,85.92,81.57,0.0,6.57,65.7,0.0
02:04:50,3.5840,1.7834,18.1469,4.0598,86.52,82.28,0.0,6.39,63.9,0.0
02:06:00,3.5380,1.7645,18.2674,4.0940,87.10,82.97,0.0,6.24,62.4,0.0
02:07:10,3.5330,1.7596,18.3897,4.1284,87.68,83.67,0.0,6.22,62.2,0.0
02:08:20,3.1990,1.6432,18.4796,4.1574,88.11,84.26,0.0,5.26,52.6,0.0
02:09:30,3.4420,1.7141,18.5928,4.1906,88.65,84.93,0.0,5.9,59.0,0.0
02:10:40,3.4500,1.7185,18.7079,4.2239,89.20,85.61,0.0,5.93,59.3,0.0
02:11:50,3.4640,1.7248,18.8238,4.2574,89.75,86.29,0.0,5.97,59.7,0.0
02:13:00,3.4360,1.7113,18.9391,4.2909,90.30,86.96,0.0,5.88,58.8,0.0
02:14:10,3.4210,1.7037,19.0529,4.3241,90.84,87.64,0.0,5.83,58.3,0.0
02:15:20,3.3890,1.6946,19.1652,4.3571,91.38,88.31,0.0,5.74,57.4,0.0
02:16:30,3.3780,1.6896,19.2767,4.3900,91.91,88.97,0.0,5.71,57.1,0.0
02:17:40,3.3560,1.6789,19.3866,4.4227,92.43,89.64,0.0,5.63,56.3,0.0
02:18:50,3.3390,1.6727,19.4956,4.4553,92.95,90.30,0.0,5.59,55.9,0.0
02:20:00,3.3020,1.6583,19.6031,4.4877,93.46,90.95,0.0,5.48,54.8,0.0
02:21:10,3.2890,1.6508,19.7090,4.5198,93.97,91.60,0.0,5.43,54.3,0.0
02:22:20,3.2730,1.6430,19.8141,4.5518,94.47,92.25,0.0,5.38,53.8,0.0
02:23:30,3.2480,1.6338,19.9179,4.5837,94.97,92.90,0.0,5.31,53.1,0.0
02:24:40,3.2250,1.6248,20.0201,4.6153,95.45,93.54,0.0,5.24,52.4,0.0
02:25:50,3.1990,1.6134,20.1209,4.6468,95.93,94.18,0.0,5.16,51.6,0.0
02:27:00,3.0570,1.5980,20.2197,4.6780,96.40,94.81,0.0,4.89,48.9,0.0
02:28:10,3.0260,1.5843,20.3134,4.7089,96.85,95.44,0.0,4.79,47.9,0.0
02:29:20,2.9990,1.5679,20.4058,4.7395,97.29,96.06,0.0,4.7,47.0,0.0
02:30:30,2.9610,1.5467,20.4957,4.7698,97.72,96.67,0.0,4.58,45.8,0.0
02:31:40,2.8810,1.5050,20.5822,4.7994,98.13,97.27,0.0,4.34,43.4,0.0
02:32:50,2.9270,1.5277,20.6576,4.8251,98.49,97.79,0.0,4.47,44.7,0.0
02:34:00,2.6950,1.2639,20.7178,4.8458,98.78,98.21,0.0,3.41,34.1,0.0
02:35:10,2.9020,1.5138,20.7997,4.8745,99.17,98.79,0.0,4.39,43.9,0.0
02:36:20,2.9150,1.5233,20.8751,4.9002,99.53,99.31,0.0,4.44,44.4,0.0
02:37:30,2.8680,1.4975,20.9498,4.9257,99.89,99.83,0.0,4.29,42.9,0.0
02:38:00,2.8820,1.5058,20.9859,4.9382,100.06,100.08,0.0,4.34,43.4,0.0