File: output/1/bigblue-a.csv
Time,Voltage(V),Current(A),Energy(Wh),Capacity(Ah),Energy Proportion(%),Capacity Proportion(%),Irradiance(W/m2),Irradiance/100,Power(W),Efficiency(%),Power Score,Sun Score,Efficiency Score
00:00:00,1.0810,0.0006,0.0000,0.0000,0.00,0.00,795,7.95,0.0,0.0,79.5,0.0,79.5
00:00:40,4.9310,1.9928,0.1092,0.0222,1.05,1.05,795,7.95,9.83,0.71,79.5,93.6,-14.1
00:01:20,4.9310,1.9906,0.2183,0.0443,2.10,2.10,792,7.92,9.82,0.71,79.2,93.5,-14.3
00:02:00,4.9300,2.0011,0.3278,0.0665,3.15,3.15,791,7.91,9.87,0.71,79.1,94.0,-14.9
00:02:40,4.9290,1.9987,0.4374,0.0887,4.21,4.20,786,7.86,9.85,0.72,78.6,93.8,-15.2
00:03:20,4.9290,2.0018,0.5469,0.1109,5.26,5.25,793,7.93,9.87,0.71,79.3,94.0,-14.7
00:04:00,4.9320,2.0010,0.6565,0.1332,6.31,6.31,793,7.93,9.87,0.71,79.3,94.0,-14.7
00:04:40,4.9310,1.9997,0.7661,0.1554,7.37,7.36,798,7.98,9.86,0.71,79.8,93.9,-14.1
00:05:20,4.9300,1.9997,0.8757,0.1776,8.42,8.41,794,7.94,9.86,0.71,79.4,93.9,-14.5
00:06:00,4.9300,2.0008,0.9853,0.1998,9.48,9.46,794,7.94,9.86,0.71,79.4,93.9,-14.5
00:06:40,4.9290,2.0011,1.0949,0.2221,10.53,10.52,794,7.94,9.86,0.71,79.4,93.9,-14.5
00:07:20,4.9310,2.0002,1.2044,0.2443,11.59,11.57,789,7.89,9.86,0.71,78.9,93.9,-15.0
00:08:00,4.9290,2.0000,1.3140,0.2665,12.64,12.62,788,7.88,9.86,0.72,78.8,93.9,-15.1
00:08:40,4.9290,2.0012,1.4236,0.2887,13.69,13.68,788,7.88,9.86,0.72,78.8,93.9,-15.1
00:09:20,4.9270,2.0007,1.5331,0.3110,14.75,14.73,792,7.92,9.86,0.71,79.2,93.9,-14.7
00:10:00,4.9240,2.0016,1.6426,0.3332,15.80,15.78,796,7.96,9.86,0.71,79.6,93.9,-14.3
00:10:40,4.9240,2.0026,1.7522,0.3554,16.85,16.83,796,7.96,9.86,0.71,79.6,93.9,-14.3
00:11:20,4.9270,2.0009,1.8617,0.3777,17.91,17.89,797,7.97,9.86,0.71,79.7,93.9,-14.2
00:12:00,4.9260,2.0001,1.9711,0.3999,18.96,18.94,798,7.98,9.85,0.71,79.8,93.8,-14.0
00:12:40,4.9280,2.0024,2.0808,0.4221,20.01,19.99,798,7.98,9.87,0.71,79.8,94.0,-14.2
00:13:20,4.9270,2.0010,2.1903,0.4444,21.07,21.05,800,8.0,9.86,0.7,80.0,93.9,-13.9
00:14:00,4.9260,2.0012,2.2998,0.4666,22.12,22.10,804,8.04,9.86,0.7,80.4,93.9,-13.5
00:14:40,4.9280,2.0014,2.4094,0.4888,23.18,23.15,803,8.03,9.86,0.7,80.3,93.9,-13.6
00:15:20,4.9270,2.0010,2.5189,0.5111,24.23,24.21,804,8.04,9.86,0.7,80.4,93.9,-13.5
00:16:00,4.9260,2.0003,2.6284,0.5333,25.28,25.26,807,8.07,9.85,0.7,80.7,93.8,-13.1
00:16:40,4.9240,2.0021,2.7380,0.5556,26.34,26.31,806,8.06,9.86,0.7,80.6,93.9,-13.3
00:17:20,4.9250,2.0026,2.8475,0.5778,27.39,27.36,806,8.06,9.86,0.7,80.6,93.9,-13.3
00:18:00,4.9240,1.9995,2.9569,0.6000,28.44,28.42,806,8.06,9.85,0.7,80.6,93.8,-13.2
00:18:40,4.9240,2.0023,3.0664,0.6223,29.50,29.47,801,8.01,9.86,0.7,80.1,93.9,-13.8
00:19:20,4.9260,2.0002,3.1759,0.6445,30.55,30.52,804,8.04,9.85,0.7,80.4,93.8,-13.4
00:20:00,4.9250,1.9993,3.2854,0.6667,31.60,31.58,805,8.05,9.85,0.7,80.5,93.8,-13.3
00:20:40,4.9250,1.9997,3.3949,0.6889,32.65,32.63,808,8.08,9.85,0.7,80.8,93.8,-13.0
00:21:20,4.9240,2.0005,3.5043,0.7112,33.71,33.68,807,8.07,9.85,0.7,80.7,93.8,-13.1
00:22:00,4.9240,2.0000,3.6138,0.7334,34.76,34.73,807,8.07,9.85,0.7,80.7,93.8,-13.1
00:22:40,4.9240,2.0014,3.7232,0.7556,35.81,35.79,808,8.08,9.85,0.7,80.8,93.8,-13.0
00:23:20,4.9250,1.9995,3.8327,0.7779,36.87,36.84,811,8.11,9.85,0.69,81.1,93.8,-12.7
00:24:00,4.9230,2.0003,3.9421,0.8001,37.92,37.89,809,8.09,9.85,0.7,80.9,93.8,-12.9
00:24:40,4.9210,2.0000,4.0515,0.8223,38.97,38.95,815,8.15,9.84,0.69,81.5,93.7,-12.2
00:25:20,4.9240,2.0012,4.1610,0.8445,40.02,40.00,812,8.12,9.85,0.69,81.2,93.8,-12.6
00:26:00,4.9260,2.0003,4.2705,0.8668,41.08,41.05,811,8.11,9.85,0.69,81.1,93.8,-12.7
00:26:40,4.9230,1.9999,4.3799,0.8890,42.13,42.10,814,8.14,9.85,0.69,81.4,93.8,-12.4
00:27:20,4.9230,2.0009,4.4894,0.9112,43.18,43.16,815,8.15,9.85,0.69,81.5,93.8,-12.3
00:28:00,4.9230,2.0000,4.5988,0.9335,44.23,44.21,818,8.18,9.85,0.69,81.8,93.8,-12.0
00:28:40,4.9240,1.9997,4.7082,0.9557,45.29,45.26,819,8.19,9.85,0.69,81.9,93.8,-11.9
00:29:20,4.9230,2.0001,4.8176,0.9779,46.34,46.31,824,8.24,9.85,0.68,82.4,93.8,-11.4
00:30:00,4.9230,1.9995,4.9271,1.0001,47.39,47.37,823,8.23,9.84,0.68,82.3,93.7,-11.4
00:30:40,4.9240,1.9999,5.0365,1.0224,48.44,48.42,823,8.23,9.85,0.68,82.3,93.8,-11.5
00:31:20,4.9230,2.0014,5.1459,1.0446,49.50,49.47,820,8.2,9.85,0.69,82.0,93.8,-11.8
00:32:00,4.9230,2.0009,5.2554,1.0668,50.55,50.53,820,8.2,9.85,0.69,82.0,93.8,-11.8
00:32:40,4.9220,2.0006,5.3648,1.0890,51.60,51.58,820,8.2,9.85,0.69,82.0,93.8,-11.8
00:33:20,4.9230,2.0005,5.4742,1.1113,52.65,52.63,819,8.19,9.85,0.69,81.9,93.8,-11.9
00:34:00,4.9240,2.0014,5.5836,1.1335,53.71,53.68,821,8.21,9.85,0.69,82.1,93.8,-11.7
00:34:40,4.9230,2.0015,5.6931,1.1557,54.76,54.74,821,8.21,9.85,0.69,82.1,93.8,-11.7
00:35:20,4.9210,2.0002,5.8025,1.1780,55.81,55.79,815,8.15,9.84,0.69,81.5,93.7,-12.2
00:36:00,4.9190,2.0008,5.9119,1.2002,56.87,56.84,817,8.17,9.84,0.69,81.7,93.7,-12.0
00:36:40,4.9190,1.9999,6.0212,1.2224,57.92,57.89,820,8.2,9.84,0.69,82.0,93.7,-11.7
00:37:20,4.9200,2.0001,6.1305,1.2446,58.97,58.95,820,8.2,9.84,0.69,82.0,93.7,-11.7
00:38:00,4.9190,2.0005,6.2398,1.2669,60.02,60.00,818,8.18,9.84,0.69,81.8,93.7,-11.9
00:38:40,4.9190,1.9994,6.3491,1.2891,61.07,61.05,817,8.17,9.84,0.69,81.7,93.7,-12.0
00:39:20,4.9170,2.0007,6.4584,1.3113,62.12,62.10,822,8.22,9.84,0.68,82.2,93.7,-11.5
00:40:00,4.9150,2.0000,6.5677,1.3335,63.17,63.16,826,8.26,9.83,0.68,82.6,93.6,-11.0
00:40:40,4.9170,2.0002,6.6770,1.3558,64.22,64.21,826,8.26,9.83,0.68,82.6,93.6,-11.0
00:41:20,4.9180,2.0001,6.7863,1.3780,65.28,65.26,827,8.27,9.84,0.68,82.7,93.7,-11.0
00:42:00,4.9200,2.0002,6.8957,1.4002,66.33,66.32,827,8.27,9.84,0.68,82.7,93.7,-11.0
00:42:40,4.9200,2.0010,7.0051,1.4225,67.38,67.37,828,8.28,9.84,0.68,82.8,93.7,-10.9
00:43:20,4.9220,2.0019,7.1145,1.4447,68.43,68.42,831,8.31,9.85,0.68,83.1,93.8,-10.7
00:44:00,4.9210,2.0006,7.2239,1.4669,69.48,69.47,828,8.28,9.84,0.68,82.8,93.7,-10.9
00:44:40,4.9210,2.0005,7.3332,1.4891,70.54,70.53,829,8.29,9.84,0.68,82.9,93.7,-10.8
00:45:20,4.9220,2.0019,7.4426,1.5114,71.59,71.58,832,8.32,9.85,0.68,83.2,93.8,-10.6
00:46:00,4.9220,2.0009,7.5521,1.5336,72.64,72.63,834,8.34,9.85,0.67,83.4,93.8,-10.4
00:46:40,4.9230,2.0001,7.6615,1.5558,73.69,73.68,833,8.33,9.85,0.68,83.3,93.8,-10.5
00:47:20,4.9220,2.0009,7.7709,1.5781,74.75,74.74,836,8.36,9.85,0.67,83.6,93.8,-10.2
00:48:00,4.9220,2.0008,7.8803,1.6003,75.80,75.79,838,8.38,9.85,0.67,83.8,93.8,-10.0
00:48:40,4.9210,2.0003,7.9897,1.6225,76.85,76.84,839,8.39,9.84,0.67,83.9,93.7,-9.8
00:49:20,4.9200,2.0006,8.0991,1.6447,77.90,77.90,838,8.38,9.84,0.67,83.8,93.7,-9.9
00:50:00,4.9190,2.0002,8.2084,1.6670,78.96,78.95,838,8.38,9.84,0.67,83.8,93.7,-9.9
00:50:40,4.9220,1.9993,8.3177,1.6892,80.01,80.00,836,8.36,9.84,0.67,83.6,93.7,-10.1
00:51:20,4.9210,1.9999,8.4271,1.7114,81.06,81.05,838,8.38,9.84,0.67,83.8,93.7,-9.9
00:52:00,4.9200,1.9997,8.5365,1.7336,82.11,82.11,840,8.4,9.84,0.67,84.0,93.7,-9.7
00:52:40,4.9220,2.0008,8.6458,1.7559,83.16,83.16,840,8.4,9.85,0.67,84.0,93.8,-9.8
00:53:20,4.9220,2.0005,8.7553,1.7781,84.22,84.21,841,8.41,9.85,0.67,84.1,93.8,-9.7
00:54:00,4.9220,1.9996,8.8646,1.8003,85.27,85.26,841,8.41,9.84,0.67,84.1,93.7,-9.6
00:54:40,4.9220,1.9993,8.9740,1.8225,86.32,86.32,838,8.38,9.84,0.67,83.8,93.7,-9.9
00:55:20,4.9230,2.0000,9.0834,1.8448,87.37,87.37,841,8.41,9.85,0.67,84.1,93.8,-9.7
00:56:00,4.9240,1.9991,9.1929,1.8670,88.42,88.42,842,8.42,9.84,0.67,84.2,93.7,-9.5
00:56:40,4.9240,2.0004,9.3023,1.8892,89.48,89.47,839,8.39,9.85,0.67,83.9,93.8,-9.9
00:57:20,4.9240,2.0000,9.4118,1.9114,90.53,90.53,842,8.42,9.85,0.67,84.2,93.8,-9.6
00:58:00,4.9230,2.0001,9.5211,1.9337,91.58,91.58,841,8.41,9.85,0.67,84.1,93.8,-9.7
00:58:40,4.9200,1.9998,9.6305,1.9559,92.63,92.63,841,8.41,9.84,0.67,84.1,93.7,-9.6
00:59:20,4.9210,2.0010,9.7399,1.9781,93.69,93.68,842,8.42,9.85,0.67,84.2,93.8,-9.6
01:00:00,4.9230,2.0002,9.8493,2.0003,94.74,94.74,844,8.44,9.85,0.67,84.4,93.8,-9.4
01:00:40,4.9220,2.0002,9.9587,2.0226,95.79,95.79,842,8.42,9.84,0.67,84.2,93.7,-9.5
01:01:20,4.9230,1.9999,10.0681,2.0448,96.84,96.84,838,8.38,9.85,0.67,83.8,93.8,-10.0
01:02:00,4.9230,1.9995,10.1775,2.0670,97.90,97.89,837,8.37,9.84,0.67,83.7,93.7,-10.0
01:02:40,4.9210,2.0003,10.2869,2.0892,98.95,98.95,842,8.42,9.84,0.67,84.2,93.7,-9.5
01:03:20,4.9220,2.0004,10.3963,2.1115,100.00,100.00,843,8.43,9.85,0.67,84.3,93.8,-9.5