File: output/1/nekteck-a.csv
Time,Voltage(V),Current(A),Energy(Wh),Capacity(Ah),Energy Proportion(%),Capacity Proportion(%),Irradiance(W/m2),Irradiance/100,Power(W),Efficiency(%)
00:00:00,4.6620,2.0042,0.0260,0.0056,0.26,0.26,855,8.55,9.34,0.85
00:00:30,4.6680,2.0022,0.1038,0.0223,1.03,1.03,850,8.5,9.35,0.85
00:01:00,4.6650,2.0011,0.1816,0.0389,1.80,1.80,847,8.47,9.34,0.85
00:01:30,4.6630,1.9997,0.2594,0.0556,2.57,2.57,846,8.46,9.32,0.85
00:02:00,4.6620,2.0000,0.3371,0.0723,3.35,3.34,846,8.46,9.32,0.85
00:02:30,4.6600,1.9995,0.4147,0.0889,4.12,4.10,840,8.4,9.32,0.86
00:03:00,4.6590,2.0009,0.4924,0.1056,4.89,4.87,836,8.36,9.32,0.86
00:03:30,4.6590,2.0005,0.5700,0.1223,5.66,5.64,836,8.36,9.32,0.86
00:04:00,4.6570,2.0004,0.6477,0.1389,6.43,6.41,837,8.37,9.32,0.86
00:04:30,4.6560,1.9998,0.7253,0.1556,7.20,7.18,834,8.34,9.31,0.87
00:05:00,4.6550,1.9999,0.8029,0.1723,7.97,7.95,835,8.35,9.31,0.86
00:05:30,4.6560,1.9995,0.8805,0.1889,8.74,8.72,840,8.4,9.31,0.86
00:06:00,4.6560,2.0003,0.9581,0.2056,9.51,9.49,839,8.39,9.31,0.86
00:06:30,4.6560,1.9988,1.0356,0.2223,10.28,10.26,837,8.37,9.31,0.86
00:07:00,4.6570,1.9999,1.1132,0.2389,11.05,11.03,834,8.34,9.31,0.87
00:07:30,4.6560,1.9995,1.1908,0.2556,11.82,11.80,834,8.34,9.31,0.87
00:08:00,4.6550,2.0011,1.2684,0.2723,12.59,12.57,833,8.33,9.32,0.87
00:08:30,4.6550,2.0009,1.3460,0.2889,13.36,13.34,837,8.37,9.31,0.86
00:09:00,4.6540,1.9998,1.4236,0.3056,14.13,14.10,830,8.3,9.31,0.87
00:09:30,4.6540,2.0003,1.5012,0.3223,14.90,14.87,835,8.35,9.31,0.86
00:10:00,4.6550,2.0005,1.5788,0.3389,15.67,15.64,833,8.33,9.31,0.87
00:10:30,4.6550,1.9992,1.6563,0.3556,16.44,16.41,833,8.33,9.31,0.87
00:11:00,4.6550,2.0006,1.7339,0.3723,17.21,17.18,832,8.32,9.31,0.87
00:11:30,4.6550,2.0000,1.8115,0.3889,17.98,17.95,836,8.36,9.31,0.86
00:12:00,4.6530,1.9998,1.8891,0.4056,18.75,18.72,831,8.31,9.31,0.87
00:12:30,4.6520,2.0010,1.9666,0.4223,19.52,19.49,835,8.35,9.31,0.86
00:13:00,4.6510,1.9995,2.0441,0.4389,20.29,20.26,828,8.28,9.3,0.87
00:13:30,4.6520,2.0002,2.1217,0.4556,21.06,21.03,831,8.31,9.3,0.87
00:14:00,4.6520,1.9994,2.1992,0.4723,21.83,21.80,834,8.34,9.3,0.86
00:14:30,4.6540,2.0005,2.2767,0.4889,22.60,22.57,829,8.29,9.31,0.87
00:15:00,4.6540,1.9994,2.3543,0.5056,23.37,23.33,825,8.25,9.31,0.87
00:15:30,4.6530,1.9990,2.4319,0.5223,24.14,24.10,828,8.28,9.3,0.87
00:16:00,4.6530,1.9992,2.5094,0.5389,24.91,24.87,824,8.24,9.3,0.87
00:16:30,4.6510,2.0004,2.5869,0.5556,25.68,25.64,824,8.24,9.3,0.87
00:17:00,4.6500,1.9989,2.6644,0.5723,26.45,26.41,824,8.24,9.29,0.87
00:17:30,4.6500,2.0000,2.7419,0.5889,27.21,27.18,826,8.26,9.3,0.87
00:18:00,4.6500,2.0001,2.8194,0.6056,27.98,27.95,827,8.27,9.3,0.87
00:18:30,4.6510,1.9994,2.8970,0.6223,28.75,28.72,830,8.3,9.3,0.87
00:19:00,4.6500,1.9994,2.9745,0.6389,29.52,29.49,835,8.35,9.3,0.86
00:19:30,4.6500,1.9990,3.0520,0.6556,30.29,30.26,836,8.36,9.3,0.86
00:20:00,4.6490,1.9994,3.1294,0.6723,31.06,31.03,836,8.36,9.3,0.86
00:20:30,4.6510,1.9997,3.2069,0.6889,31.83,31.80,837,8.37,9.3,0.86
00:21:00,4.6510,2.0000,3.2845,0.7056,32.60,32.57,837,8.37,9.3,0.86
00:21:30,4.6500,1.9995,3.3620,0.7223,33.37,33.33,833,8.33,9.3,0.87
00:22:00,4.6500,1.9992,3.4395,0.7389,34.14,34.10,833,8.33,9.3,0.87
00:22:30,4.6500,2.0014,3.5170,0.7556,34.91,34.87,833,8.33,9.31,0.87
00:23:00,4.6510,2.0007,3.5945,0.7723,35.68,35.64,836,8.36,9.31,0.86
00:23:30,4.6490,1.9996,3.6720,0.7889,36.45,36.41,832,8.32,9.3,0.87
00:24:00,4.6490,2.0000,3.7495,0.8056,37.22,37.18,837,8.37,9.3,0.86
00:24:30,4.6480,1.9997,3.8270,0.8223,37.98,37.95,840,8.4,9.29,0.86
00:25:00,4.6470,2.0002,3.9044,0.8390,38.75,38.72,836,8.36,9.29,0.86
00:25:30,4.6470,1.9991,3.9818,0.8556,39.52,39.49,838,8.38,9.29,0.86
00:26:00,4.6470,1.9999,4.0593,0.8723,40.29,40.26,838,8.38,9.29,0.86
00:26:30,4.6480,1.9999,4.1368,0.8889,41.06,41.03,838,8.38,9.3,0.86
00:27:00,4.6490,1.9999,4.2142,0.9056,41.83,41.80,835,8.35,9.3,0.86
00:27:30,4.6490,2.0004,4.2917,0.9223,42.60,42.57,837,8.37,9.3,0.86
00:28:00,4.6490,2.0005,4.3692,0.9389,43.37,43.33,836,8.36,9.3,0.86
00:28:30,4.6490,1.9997,4.4467,0.9556,44.14,44.10,840,8.4,9.3,0.86
00:29:00,4.6500,1.9999,4.5241,0.9723,44.90,44.87,838,8.38,9.3,0.86
00:29:30,4.6500,2.0005,4.6016,0.9889,45.67,45.64,837,8.37,9.3,0.86
00:30:00,4.6520,2.0000,4.6792,1.0056,46.44,46.41,839,8.39,9.3,0.86
00:30:30,4.6510,1.9998,4.7567,1.0223,47.21,47.18,840,8.4,9.3,0.86
00:31:00,4.6510,1.9994,4.8342,1.0389,47.98,47.95,836,8.36,9.3,0.86
00:31:30,4.6510,1.9998,4.9117,1.0556,48.75,48.72,834,8.34,9.3,0.86
00:32:00,4.6500,2.0000,4.9892,1.0723,49.52,49.49,836,8.36,9.3,0.86
00:32:30,4.6500,1.9997,5.0667,1.0889,50.29,50.26,840,8.4,9.3,0.86
00:33:00,4.6500,1.9997,5.1442,1.1056,51.06,51.03,842,8.42,9.3,0.86
00:33:30,4.6500,1.9999,5.2217,1.1223,51.83,51.80,838,8.38,9.3,0.86
00:34:00,4.6490,2.0005,5.2992,1.1389,52.60,52.56,836,8.36,9.3,0.86
00:34:30,4.6490,2.0008,5.3767,1.1556,53.37,53.33,838,8.38,9.3,0.86
00:35:00,4.6500,2.0020,5.4542,1.1723,54.14,54.10,838,8.38,9.31,0.86
00:35:30,4.6490,2.0008,5.5317,1.1889,54.91,54.87,830,8.3,9.3,0.87
00:36:00,4.6480,2.0000,5.6092,1.2056,55.67,55.64,837,8.37,9.3,0.86
00:36:30,4.6470,1.9990,5.6867,1.2223,56.44,56.41,839,8.39,9.29,0.86
00:37:00,4.6480,2.0008,5.7641,1.2389,57.21,57.18,836,8.36,9.3,0.86
00:37:30,4.6470,1.9999,5.8416,1.2556,57.98,57.95,834,8.34,9.29,0.86
00:38:00,4.6490,2.0008,5.9190,1.2723,58.75,58.72,845,8.45,9.3,0.85
00:38:30,4.6500,2.0007,5.9965,1.2889,59.52,59.49,843,8.43,9.3,0.86
00:39:00,4.6500,1.9999,6.0740,1.3056,60.29,60.26,843,8.43,9.3,0.86
00:39:30,4.6490,2.0001,6.1515,1.3223,61.06,61.03,844,8.44,9.3,0.85
00:40:00,4.6480,2.0005,6.2290,1.3389,61.83,61.80,844,8.44,9.3,0.85
00:40:30,4.6460,2.0002,6.3065,1.3556,62.60,62.57,842,8.42,9.29,0.86
00:41:00,4.6450,2.0001,6.3839,1.3723,63.36,63.33,839,8.39,9.29,0.86
00:41:30,4.6450,1.9996,6.4613,1.3890,64.13,64.10,839,8.39,9.29,0.86
00:42:00,4.6460,2.0004,6.5387,1.4056,64.90,64.87,838,8.38,9.29,0.86
00:42:30,4.6470,1.9998,6.6162,1.4223,65.67,65.64,843,8.43,9.29,0.85
00:43:00,4.6470,1.9998,6.6936,1.4389,66.44,66.41,843,8.43,9.29,0.85
00:43:30,4.6490,2.0001,6.7711,1.4556,67.21,67.18,841,8.41,9.3,0.86
00:44:00,4.6490,2.0000,6.8486,1.4723,67.98,67.95,847,8.47,9.3,0.85
00:44:30,4.6490,1.9989,6.9261,1.4889,68.75,68.72,840,8.4,9.29,0.86
00:45:00,4.6490,1.9995,7.0035,1.5056,69.51,69.49,837,8.37,9.3,0.86
00:45:30,4.6480,2.0002,7.0810,1.5223,70.28,70.26,835,8.35,9.3,0.86
00:46:00,4.6490,2.0000,7.1585,1.5389,71.05,71.03,833,8.33,9.3,0.87
00:46:30,4.6490,2.0001,7.2360,1.5556,71.82,71.80,838,8.38,9.3,0.86
00:47:00,4.6480,2.0004,7.3135,1.5723,72.59,72.56,835,8.35,9.3,0.86
00:47:30,4.6470,2.0002,7.3909,1.5890,73.36,73.33,834,8.34,9.29,0.86
00:48:00,4.6480,2.0005,7.4684,1.6056,74.13,74.10,838,8.38,9.3,0.86
00:48:30,4.6490,1.9998,7.5459,1.6223,74.90,74.87,838,8.38,9.3,0.86
00:49:00,4.6490,1.9996,7.6233,1.6390,75.67,75.64,836,8.36,9.3,0.86
00:49:30,4.6470,1.9997,7.7008,1.6556,76.43,76.41,837,8.37,9.29,0.86
00:50:00,4.6470,1.9995,7.7782,1.6723,77.20,77.18,839,8.39,9.29,0.86
00:50:30,4.6460,2.0003,7.8557,1.6890,77.97,77.95,839,8.39,9.29,0.86
00:51:00,4.6460,2.0000,7.9331,1.7056,78.74,78.72,837,8.37,9.29,0.86
00:51:30,4.6450,2.0002,8.0106,1.7223,79.51,79.49,837,8.37,9.29,0.86
00:52:00,4.6440,2.0004,8.0880,1.7390,80.28,80.26,835,8.35,9.29,0.86
00:52:30,4.6440,2.0003,8.1654,1.7556,81.05,81.03,833,8.33,9.29,0.86
00:53:00,4.6440,2.0003,8.2428,1.7723,81.81,81.80,836,8.36,9.29,0.86
00:53:30,4.6460,2.0004,8.3202,1.7890,82.58,82.56,837,8.37,9.29,0.86
00:54:00,4.6460,2.0003,8.3976,1.8056,83.35,83.33,837,8.37,9.29,0.86
00:54:30,4.6450,1.9998,8.4751,1.8223,84.12,84.10,838,8.38,9.29,0.86
00:55:00,4.6440,1.9997,8.5525,1.8390,84.89,84.87,836,8.36,9.29,0.86
00:55:30,4.6430,1.9998,8.6298,1.8556,85.66,85.64,836,8.36,9.29,0.86
00:56:00,4.6440,2.0000,8.7072,1.8723,86.42,86.41,837,8.37,9.29,0.86
00:56:30,4.6440,2.0000,8.7846,1.8890,87.19,87.18,838,8.38,9.29,0.86
00:57:00,4.6450,1.9995,8.8620,1.9056,87.96,87.95,834,8.34,9.29,0.86
00:57:30,4.6440,2.0005,8.9394,1.9223,88.73,88.72,834,8.34,9.29,0.86
00:58:00,4.6440,1.9999,9.0168,1.9390,89.50,89.49,836,8.36,9.29,0.86
00:58:30,4.6450,2.0001,9.0942,1.9556,90.27,90.26,839,8.39,9.29,0.86
00:59:00,4.6460,2.0000,9.1717,1.9723,91.03,91.03,834,8.34,9.29,0.86
00:59:30,4.6450,2.0002,9.2491,1.9890,91.80,91.80,828,8.28,9.29,0.87
01:00:00,4.6450,2.0004,9.3265,2.0056,92.57,92.56,835,8.35,9.29,0.86
01:00:30,4.6450,2.0003,9.4039,2.0223,93.34,93.33,838,8.38,9.29,0.86
01:01:00,4.6450,1.9999,9.4813,2.0390,94.11,94.10,840,8.4,9.29,0.86
01:01:30,4.6460,2.0001,9.5587,2.0556,94.88,94.87,839,8.39,9.29,0.86
01:02:00,4.6460,1.9999,9.6362,2.0723,95.64,95.64,837,8.37,9.29,0.86
01:02:30,4.6460,1.9999,9.7136,2.0889,96.41,96.41,836,8.36,9.29,0.86
01:03:00,4.6460,1.9998,9.7910,2.1056,97.18,97.18,844,8.44,9.29,0.85
01:03:30,4.6460,2.0001,9.8685,2.1223,97.95,97.95,840,8.4,9.29,0.86
01:04:00,4.6450,2.0004,9.9459,2.1390,98.72,98.72,838,8.38,9.29,0.86
01:04:30,4.6450,2.0012,10.0234,2.1556,99.49,99.49,838,8.38,9.3,0.86
01:05:00,4.6290,1.9996,10.1007,2.1723,100.26,100.26,847,8.47,9.26,0.85