File: output/2/aeiusny-1.csv
Time,Voltage(V),Current(A),Energy(Wh),Capacity(Ah),Energy Proportion(%),Capacity Proportion(%),Irradiance(W/m2),Power(W),Power Score,Sun Score,Irradiance/100,Efficiency(%),Efficiency Score
00:00:00,4.5630,1.9989,0.0253,0.0056,0.37,0.36,669.0,9.12,91.2,66.9,6.69,0.83,-24.3
00:00:40,4.5680,1.9986,0.1269,0.0278,1.86,1.82,656.0,9.13,91.3,65.6,6.56,0.84,-25.7
00:01:20,4.5600,1.9990,0.2282,0.0500,3.35,3.28,657.0,9.12,91.2,65.7,6.57,0.84,-25.5
00:02:00,4.5500,1.9985,0.3293,0.0722,4.83,4.74,658.0,9.09,90.9,65.8,6.58,0.84,-25.1
00:02:40,4.5420,1.9987,0.4302,0.0944,6.32,6.20,658.0,9.08,90.8,65.8,6.58,0.84,-25.0
00:03:20,4.5340,1.9985,0.5310,0.1166,7.80,7.66,661.0,9.06,90.6,66.1,6.61,0.83,-24.5
00:04:00,4.5250,1.9991,0.6316,0.1388,9.27,9.12,665.0,9.05,90.5,66.5,6.65,0.82,-24.0
00:04:40,4.5210,1.9979,0.7069,0.1555,10.38,10.21,664.0,9.03,90.3,66.4,6.64,0.82,-23.9
00:05:20,4.5100,1.9984,0.8071,0.1777,11.85,11.67,664.0,9.01,90.1,66.4,6.64,0.82,-23.7
00:06:00,4.4990,1.9985,0.9071,0.1999,13.32,13.13,667.0,8.99,89.9,66.7,6.67,0.82,-23.2
00:06:40,4.4900,1.9982,1.0069,0.2221,14.78,14.59,670.0,8.97,89.7,67.0,6.7,0.81,-22.7
00:07:20,4.4850,1.9983,1.1065,0.2443,16.25,16.05,672.0,8.96,89.6,67.2,6.72,0.81,-22.4
00:08:00,4.4790,1.9985,1.2060,0.2665,17.71,17.50,672.0,8.95,89.5,67.2,6.72,0.81,-22.3
00:08:40,4.4750,1.9983,1.3054,0.2887,19.17,18.96,676.0,8.94,89.4,67.6,6.76,0.8,-21.8
00:09:20,0.5520,0.0000,1.3799,0.3053,20.26,20.06,678.0,0.0,0.0,67.8,6.78,0.0,67.8
00:10:00,4.4730,1.9981,1.4793,0.3275,21.72,21.51,683.0,8.94,89.4,68.3,6.83,0.79,-21.1
00:10:40,4.4950,1.9977,1.5786,0.3497,23.18,22.97,681.0,8.98,89.8,68.1,6.81,0.8,-21.7
00:11:20,4.5090,1.9974,1.6546,0.3670,24.29,24.11,683.0,9.01,90.1,68.3,6.83,0.8,-21.8
00:12:00,4.5760,1.9814,1.7407,0.3855,25.56,25.32,679.0,9.07,90.7,67.9,6.79,0.81,-22.8
00:12:40,4.4980,1.9974,1.8408,0.4077,27.02,26.78,686.0,8.98,89.8,68.6,6.86,0.79,-21.2
00:13:20,4.5210,1.9983,1.9095,0.4227,28.03,27.76,685.0,9.03,90.3,68.5,6.85,0.8,-21.8
00:14:00,4.5320,1.9967,1.9847,0.4393,29.14,28.86,687.0,9.05,90.5,68.7,6.87,0.8,-21.8
00:14:40,5.0620,0.6338,2.0414,0.4518,29.97,29.67,688.0,3.21,32.1,68.8,6.88,0.28,36.7
00:15:20,4.5020,1.9991,2.1412,0.4737,31.44,31.12,690.0,9.0,90.0,69.0,6.9,0.79,-21.0
00:16:00,4.5020,1.9982,2.2391,0.4951,32.87,32.52,686.0,9.0,90.0,68.6,6.86,0.8,-21.4
00:16:40,5.2290,0.0098,2.2911,0.5070,33.64,33.30,689.0,0.05,0.5,68.9,6.89,0.0,68.4
00:17:20,4.5130,1.9984,2.3666,0.5237,34.74,34.40,692.0,9.02,90.2,69.2,6.92,0.79,-21.0
00:18:00,4.5520,1.9981,2.4465,0.5412,35.92,35.55,692.0,9.1,91.0,69.2,6.92,0.8,-21.8
00:18:40,4.5640,1.9974,2.5222,0.5579,37.03,36.64,694.0,9.12,91.2,69.4,6.94,0.8,-21.8
00:19:20,4.5280,1.9995,2.5878,0.5732,37.99,37.65,692.0,9.05,90.5,69.2,6.92,0.79,-21.3
00:20:00,5.2290,0.0098,2.6384,0.5843,38.73,38.38,694.0,0.05,0.5,69.4,6.94,0.0,68.9
00:20:40,5.2290,0.0098,2.6928,0.5970,39.53,39.22,698.0,0.05,0.5,69.8,6.98,0.0,69.3
00:21:20,5.2290,0.0098,2.7685,0.6137,40.64,40.31,697.0,0.05,0.5,69.7,6.97,0.0,69.2
00:22:00,5.2290,0.0098,2.8347,0.6289,41.62,41.31,701.0,0.05,0.5,70.1,7.01,0.0,69.6
00:22:40,4.8460,1.4323,2.9054,0.6446,42.65,42.34,699.0,6.94,69.4,69.9,6.99,0.6,0.5
00:23:20,4.5680,1.9974,2.9849,0.6620,43.82,43.49,701.0,9.12,91.2,70.1,7.01,0.79,-21.1
00:24:00,4.5290,1.9985,3.0419,0.6744,44.66,44.30,704.0,9.05,90.5,70.4,7.04,0.78,-20.1
00:24:40,4.6920,1.9076,3.1169,0.6908,45.76,45.38,706.0,8.95,89.5,70.6,7.06,0.77,-18.9
00:25:20,4.6200,1.9744,3.1927,0.7075,46.87,46.47,710.0,9.12,91.2,71.0,7.1,0.78,-20.2
00:26:00,4.5600,1.9973,3.2683,0.7241,47.98,47.57,708.0,9.11,91.1,70.8,7.08,0.78,-20.3
00:26:40,4.5480,1.9989,3.3207,0.7360,48.75,48.35,712.0,9.09,90.9,71.2,7.12,0.77,-19.7
00:27:20,4.5380,1.9994,3.3939,0.7518,49.83,49.39,713.0,9.07,90.7,71.3,7.13,0.77,-19.4
00:28:00,4.5480,1.9986,3.4692,0.7685,50.93,50.48,714.0,9.09,90.9,71.4,7.14,0.77,-19.5
00:28:40,5.1610,0.2863,3.5237,0.7804,51.73,51.26,718.0,1.48,14.8,71.8,7.18,0.12,57.0
00:29:20,4.6020,1.9862,3.5802,0.7936,52.56,52.13,716.0,9.14,91.4,71.6,7.16,0.77,-19.8
00:30:00,5.2270,0.0140,3.6376,0.8071,53.40,53.01,722.0,0.07,0.7,72.2,7.22,0.01,71.5
00:30:40,5.2290,0.0099,3.7134,0.8237,54.52,54.11,718.0,0.05,0.5,71.8,7.18,0.0,71.3
00:31:20,4.6150,1.9786,3.7903,0.8409,55.65,55.24,721.0,9.13,91.3,72.1,7.21,0.77,-19.2
00:32:00,4.5290,1.9998,3.8429,0.8529,56.42,56.02,717.0,9.06,90.6,71.7,7.17,0.77,-18.9
00:32:40,3.5770,1.2956,3.8904,0.8639,57.12,56.75,715.0,4.63,46.3,71.5,7.15,0.39,25.2
00:33:20,5.2280,0.0099,3.9644,0.8799,58.20,57.80,720.0,0.05,0.5,72.0,7.2,0.0,71.5
00:34:00,4.7480,1.7700,4.0527,0.8999,59.50,59.11,718.0,8.4,84.0,71.8,7.18,0.71,-12.2
00:34:40,4.5910,1.9905,4.1514,0.9217,60.95,60.55,726.0,9.14,91.4,72.6,7.26,0.76,-18.8
00:35:20,4.5410,1.9993,4.2242,0.9380,62.02,61.61,723.0,9.08,90.8,72.3,7.23,0.76,-18.5
00:36:00,4.2360,1.7499,4.2736,0.9490,62.74,62.34,725.0,7.41,74.1,72.5,7.25,0.62,-1.6
00:36:40,4.7280,1.8318,4.3732,0.9708,64.20,63.77,726.0,8.66,86.6,72.6,7.26,0.72,-14.0
00:37:20,4.5200,1.9995,4.4003,0.9771,64.60,64.18,730.0,9.04,90.4,73.0,7.3,0.75,-17.4
00:38:00,4.6010,1.9875,4.5013,0.9993,66.09,65.64,734.0,9.14,91.4,73.4,7.34,0.75,-18.0
00:38:40,5.2280,0.0098,4.5284,1.0047,66.48,66.00,729.0,0.05,0.5,72.9,7.29,0.0,72.4
00:39:20,4.5300,1.9987,4.5806,1.0162,67.25,66.75,739.0,9.05,90.5,73.9,7.39,0.74,-16.6
00:40:00,4.8300,1.5372,4.6771,1.0371,68.67,68.12,737.0,7.42,74.2,73.7,7.37,0.61,-0.5
00:40:40,5.2280,0.0099,4.6788,1.0374,68.69,68.14,739.0,0.05,0.5,73.9,7.39,0.0,73.4
00:41:20,2.1170,0.1240,4.6859,1.0396,68.80,68.29,742.0,0.26,2.6,74.2,7.42,0.02,71.6
00:42:00,2.0110,0.2954,4.6922,1.0425,68.89,68.48,739.0,0.59,5.9,73.9,7.39,0.05,68.0
00:42:40,2.0690,0.2616,4.6979,1.0453,68.97,68.66,738.0,0.54,5.4,73.8,7.38,0.04,68.4
00:43:20,2.0990,0.3398,4.7047,1.0484,69.07,68.86,736.0,0.71,7.1,73.6,7.36,0.06,66.5
00:44:00,0.5990,0.0000,4.7136,1.0509,69.20,69.03,740.0,0.0,0.0,74.0,7.4,0.0,74.0
00:44:40,4.9450,1.0457,4.7869,1.0662,70.28,70.04,748.0,5.17,51.7,74.8,7.48,0.42,23.1
00:45:20,4.5340,1.9993,4.8872,1.0880,71.75,71.47,748.0,9.06,90.6,74.8,7.48,0.73,-15.8
00:46:00,2.0890,0.2523,4.9617,1.1051,72.84,72.59,751.0,0.53,5.3,75.1,7.51,0.04,69.8
00:46:40,5.2290,0.0098,4.9688,1.1070,72.95,72.72,761.0,0.05,0.5,76.1,7.61,0.0,75.6
00:47:20,4.4110,1.9985,5.0600,1.1271,74.29,74.03,580.0,8.82,88.2,58.0,5.8,0.92,-30.2
00:48:00,4.4820,1.9999,5.1604,1.1493,75.76,75.49,678.0,8.96,89.6,67.8,6.78,0.8,-21.8
00:48:40,3.9350,0.3337,5.1903,1.1585,76.20,76.10,198.5,1.31,13.1,19.9,1.985,0.4,6.8
00:49:20,2.7690,1.0917,5.2147,1.1673,76.56,76.68,248.0,3.02,30.2,24.8,2.48,0.74,-5.4
00:50:00,5.2290,0.0098,5.2678,1.1815,77.34,77.61,617.0,0.05,0.5,61.7,6.17,0.0,61.2
00:50:40,4.1560,0.3680,5.3477,1.1992,78.51,78.77,741.0,1.53,15.3,74.1,7.41,0.13,58.8
00:51:20,5.2280,0.0098,5.3993,1.2109,79.27,79.54,749.0,0.05,0.5,74.9,7.49,0.0,74.4
00:52:00,4.5260,1.9988,5.4764,1.2283,80.40,80.68,751.0,9.05,90.5,75.1,7.51,0.73,-15.4
00:52:40,4.5710,1.9961,5.5540,1.2457,81.54,81.83,753.0,9.12,91.2,75.3,7.53,0.73,-15.9
00:53:20,5.0000,0.9042,5.6169,1.2593,82.46,82.72,755.0,4.52,45.2,75.5,7.55,0.36,30.3
00:54:00,4.5170,1.9983,5.6698,1.2709,83.24,83.48,759.0,9.03,90.3,75.9,7.59,0.72,-14.4
00:54:40,4.5740,1.9949,5.7467,1.2881,84.37,84.61,761.0,9.12,91.2,76.1,7.61,0.73,-15.1
00:55:20,4.5610,1.9976,5.8224,1.3048,85.48,85.71,767.0,9.11,91.1,76.7,7.67,0.72,-14.4
00:56:00,4.5280,1.9983,5.8740,1.3165,86.24,86.48,766.0,9.05,90.5,76.6,7.66,0.72,-13.9
00:56:40,4.2090,0.3361,5.9213,1.3267,86.93,87.14,766.0,1.41,14.1,76.6,7.66,0.11,62.5
00:57:20,4.5500,1.9981,6.0219,1.3489,88.41,88.60,762.0,9.09,90.9,76.2,7.62,0.72,-14.7
00:58:00,5.2280,0.0099,6.0559,1.3561,88.91,89.08,769.0,0.05,0.5,76.9,7.69,0.0,76.4
00:58:40,4.5260,1.9989,6.1301,1.3733,90.00,90.21,771.0,9.05,90.5,77.1,7.71,0.71,-13.4
00:59:20,5.2210,0.0175,6.1558,1.3789,90.38,90.58,769.0,0.09,0.9,76.9,7.69,0.01,76.0
01:00:00,4.5330,1.9973,6.2326,1.3962,91.50,91.71,770.0,9.05,90.5,77.0,7.7,0.71,-13.5
01:00:40,4.5830,1.9923,6.3337,1.4184,92.99,93.17,770.0,9.13,91.3,77.0,7.7,0.72,-14.3
01:01:20,4.6990,1.8898,6.4337,1.4398,94.45,94.58,769.0,8.88,88.8,76.9,7.69,0.7,-11.9
01:02:00,4.6020,1.9860,6.5340,1.4613,95.93,95.99,769.0,9.14,91.4,76.9,7.69,0.72,-14.5
01:02:40,4.5330,1.9995,6.6350,1.4835,97.41,97.45,771.0,9.06,90.6,77.1,7.71,0.71,-13.5
01:03:20,4.5410,1.9984,6.7356,1.5058,98.89,98.91,774.0,9.07,90.7,77.4,7.74,0.71,-13.3
01:04:00,5.2280,0.0098,6.8114,1.5224,100.00,100.00,777.0,0.05,0.5,77.7,7.77,0.0,77.2
01:04:10,5.1900,0.1657,6.8138,1.5228,100.04,100.03,777.0,0.86,8.6,77.7,7.77,0.07,69.1