File: output/2/choetech-1.csv
Time,Voltage(V),Current(A),Energy(Wh),Capacity(Ah),Energy Proportion(%),Capacity Proportion(%),Irradiance(W/m2),Power(W),Power Score,Sun Score,Irradiance/100,Efficiency(%)
00:00:00,2.8130,0.8339,0.0065,0.0023,0.09,0.12,273.0,2.35,15.7,27.3,2.73,0.71
00:00:40,2.9310,1.3897,0.0418,0.0143,0.60,0.73,428.0,4.07,27.1,42.8,4.28,0.78
00:01:20,2.8700,1.1232,0.0872,0.0298,1.26,1.53,303.0,3.22,21.5,30.3,3.03,0.87
00:02:00,2.9940,1.5546,0.1286,0.0439,1.86,2.25,521.0,4.65,31.0,52.1,5.21,0.73
00:02:40,3.0020,1.5858,0.1810,0.0614,2.62,3.14,520.0,4.76,31.7,52.0,5.2,0.75
00:03:20,2.8590,1.4153,0.2306,0.0783,3.33,4.01,467.0,4.05,27.0,46.7,4.67,0.71
00:04:00,2.7940,1.2474,0.2710,0.0926,3.92,4.74,401.0,3.49,23.3,40.1,4.01,0.71
00:04:40,2.7280,1.0669,0.3082,0.1060,4.45,5.43,333.0,2.91,19.4,33.3,3.33,0.72
00:05:20,2.8360,1.4525,0.3471,0.1201,5.02,6.15,460.0,4.12,27.5,46.0,4.6,0.73
00:06:00,2.7950,1.3935,0.3908,0.1356,5.65,6.95,443.0,3.89,25.9,44.3,4.43,0.72
00:06:40,3.1090,1.6271,0.4423,0.1529,6.39,7.83,529.0,5.06,33.7,52.9,5.29,0.78
00:07:20,3.1310,1.6361,0.4988,0.1710,7.21,8.76,532.0,5.12,34.1,53.2,5.32,0.79
00:08:00,3.0140,1.5848,0.5527,0.1887,7.99,9.67,518.0,4.78,31.9,51.8,5.18,0.76
00:08:40,3.0860,1.6177,0.6067,0.2065,8.77,10.57,527.0,4.99,33.3,52.7,5.27,0.78
00:09:20,3.0650,1.6089,0.6619,0.2244,9.57,11.49,521.0,4.93,32.9,52.1,5.21,0.78
00:10:00,3.3010,1.6589,0.7195,0.2426,10.40,12.43,537.0,5.48,36.5,53.7,5.37,0.84
00:10:40,3.3230,1.6734,0.7812,0.2612,11.29,13.38,542.0,5.56,37.1,54.2,5.42,0.84
00:11:20,3.2870,1.6612,0.8424,0.2797,12.18,14.33,538.0,5.46,36.4,53.8,5.38,0.83
00:12:00,3.2790,1.6593,0.9029,0.2981,13.05,15.27,535.0,5.44,36.3,53.5,5.35,0.83
00:12:40,3.2630,1.6548,0.9631,0.3166,13.92,16.21,533.0,5.4,36.0,53.3,5.33,0.83
00:13:20,3.2580,1.6516,1.0231,0.3349,14.79,17.15,534.0,5.38,35.9,53.4,5.34,0.83
00:14:00,3.2300,1.6445,1.0823,0.3532,15.64,18.09,528.0,5.31,35.4,52.8,5.28,0.82
00:14:40,3.0890,1.6272,1.1397,0.3714,16.47,19.02,527.0,5.03,33.5,52.7,5.27,0.78
00:15:20,3.0800,1.6226,1.1954,0.3894,17.28,19.95,525.0,5.0,33.3,52.5,5.25,0.78
00:16:00,3.1030,1.6316,1.2515,0.4075,18.09,20.87,524.0,5.06,33.7,52.4,5.24,0.79
00:16:40,3.3400,1.6814,1.3117,0.4261,18.96,21.82,543.0,5.62,37.5,54.3,5.43,0.85
00:17:20,3.3920,1.7089,1.3754,0.4449,19.88,22.79,552.0,5.8,38.7,55.2,5.52,0.86
00:18:00,3.4230,1.7213,1.4405,0.4640,20.82,23.77,556.0,5.89,39.3,55.6,5.56,0.87
00:18:40,3.4670,1.7399,1.5069,0.4833,21.78,24.75,562.0,6.03,40.2,56.2,5.62,0.88
00:19:20,3.4570,1.7349,1.5739,0.5026,22.75,25.74,562.0,6.0,40.0,56.2,5.62,0.88
00:20:00,3.4750,1.7440,1.6408,0.5219,23.72,26.73,563.0,6.06,40.4,56.3,5.63,0.88
00:20:40,3.4810,1.7467,1.7084,0.5413,24.69,27.73,564.0,6.08,40.5,56.4,5.64,0.88
00:21:20,3.4590,1.7353,1.7754,0.5606,25.66,28.72,562.0,6.0,40.0,56.2,5.62,0.88
00:22:00,3.4480,1.7295,1.8419,0.5799,26.62,29.70,557.0,5.96,39.7,55.7,5.57,0.88
00:22:40,3.4170,1.7172,1.9074,0.5990,27.57,30.68,553.0,5.87,39.1,55.3,5.53,0.87
00:23:20,3.4060,1.7141,1.9723,0.6181,28.51,31.66,552.0,5.84,38.9,55.2,5.52,0.87
00:24:00,3.4000,1.7110,2.0371,0.6371,29.45,32.63,553.0,5.82,38.8,55.3,5.53,0.86
00:24:40,3.4100,1.7154,2.1017,0.6562,30.38,33.61,555.0,5.85,39.0,55.5,5.55,0.86
00:25:20,3.4230,1.7226,2.1673,0.6753,31.33,34.59,554.0,5.9,39.3,55.4,5.54,0.87
00:26:00,3.4560,1.7359,2.2337,0.6945,32.29,35.57,563.0,6.0,40.0,56.3,5.63,0.87
00:26:40,3.4790,1.7457,2.3008,0.7139,33.26,36.57,562.0,6.07,40.5,56.2,5.62,0.89
00:27:20,3.4890,1.7505,2.3685,0.7333,34.24,37.56,566.0,6.11,40.7,56.6,5.66,0.88
00:28:00,3.4960,1.7540,2.4366,0.7528,35.22,38.56,568.0,6.13,40.9,56.8,5.68,0.88
00:28:40,3.4990,1.7572,2.5049,0.7723,36.21,39.56,569.0,6.15,41.0,56.9,5.69,0.89
00:29:20,3.5030,1.7567,2.5732,0.7918,37.20,40.56,570.0,6.15,41.0,57.0,5.7,0.88
00:30:00,3.5040,1.7585,2.6416,0.8114,38.18,41.56,569.0,6.16,41.1,56.9,5.69,0.89
00:30:40,3.5150,1.7611,2.7103,0.8309,39.18,42.56,572.0,6.19,41.3,57.2,5.72,0.89
00:31:20,3.5140,1.7609,2.7791,0.8505,40.17,43.56,573.0,6.19,41.3,57.3,5.73,0.89
00:32:00,3.5320,1.7705,2.8484,0.8701,41.17,44.57,574.0,6.25,41.7,57.4,5.74,0.89
00:32:40,3.5460,1.7747,2.9181,0.8898,42.18,45.58,577.0,6.29,41.9,57.7,5.77,0.89
00:33:20,3.5550,1.7801,2.9884,0.9096,43.20,46.59,579.0,6.33,42.2,57.9,5.79,0.9
00:34:00,3.5600,1.7838,3.0588,0.9294,44.22,47.60,580.0,6.35,42.3,58.0,5.8,0.9
00:34:40,3.5590,1.7825,3.1295,0.9492,45.24,48.62,579.0,6.34,42.3,57.9,5.79,0.9
00:35:20,3.5950,1.8019,3.2011,0.9692,46.27,49.64,584.0,6.48,43.2,58.4,5.84,0.91
00:36:00,3.6060,1.8079,3.2733,0.9893,47.32,50.67,585.0,6.52,43.5,58.5,5.85,0.91
00:36:40,3.6310,1.8204,3.3464,1.0094,48.37,51.70,590.0,6.61,44.1,59.0,5.9,0.92
00:37:20,3.6440,1.8283,3.4202,1.0297,49.44,52.74,592.0,6.66,44.4,59.2,5.92,0.92
00:38:00,3.6370,1.8239,3.4940,1.0500,50.51,53.78,592.0,6.63,44.2,59.2,5.92,0.92
00:38:40,3.6220,1.8171,3.5673,1.0702,51.57,54.82,590.0,6.58,43.9,59.0,5.9,0.91
00:39:20,3.6400,1.8251,3.6408,1.0904,52.63,55.85,592.0,6.64,44.3,59.2,5.92,0.92
00:40:00,3.6500,1.8315,3.7150,1.1108,53.70,56.89,595.0,6.68,44.5,59.5,5.95,0.92
00:40:40,3.6600,1.8328,3.7895,1.1311,54.78,57.94,598.0,6.71,44.7,59.8,5.98,0.92
00:41:20,3.6890,1.8477,3.8650,1.1516,55.87,58.99,598.0,6.82,45.5,59.8,5.98,0.93
00:42:00,3.6930,1.8524,3.9409,1.1722,56.97,60.04,603.0,6.84,45.6,60.3,6.03,0.93
00:42:40,3.7180,1.8626,4.0174,1.1928,58.07,61.10,606.0,6.93,46.2,60.6,6.06,0.94
00:43:20,3.7190,1.8649,4.0943,1.2135,59.18,62.16,608.0,6.94,46.3,60.8,6.08,0.94
00:44:00,3.7240,1.8619,4.1711,1.2342,60.29,63.21,607.0,6.93,46.2,60.7,6.07,0.94
00:44:40,3.7400,1.8713,4.2487,1.2550,61.41,64.28,609.0,7.0,46.7,60.9,6.09,0.94
00:45:20,3.7470,1.8752,4.3268,1.2758,62.54,65.35,611.0,7.03,46.9,61.1,6.11,0.94
00:46:00,3.7360,1.8702,4.4045,1.2966,63.67,66.41,612.0,6.99,46.6,61.2,6.12,0.94
00:46:40,3.7410,1.8718,4.4822,1.3174,64.79,67.47,610.0,7.0,46.7,61.0,6.1,0.94
00:47:20,3.7360,1.8693,4.5599,1.3382,65.91,68.54,611.0,6.98,46.5,61.1,6.11,0.94
00:48:00,3.7510,1.8791,4.6377,1.3590,67.04,69.61,614.0,7.05,47.0,61.4,6.14,0.94
00:48:40,3.7490,1.8770,4.7161,1.3799,68.17,70.67,614.0,7.04,46.9,61.4,6.14,0.94
00:49:20,3.7650,1.8852,4.7947,1.4008,69.31,71.75,618.0,7.1,47.3,61.8,6.18,0.94
00:50:00,3.7890,1.8986,4.8741,1.4218,70.46,72.82,621.0,7.19,47.9,62.1,6.21,0.95
00:50:40,3.7870,1.8964,4.9542,1.4429,71.61,73.90,621.0,7.18,47.9,62.1,6.21,0.95
00:51:20,3.8080,1.9083,5.0344,1.4640,72.77,74.99,625.0,7.27,48.5,62.5,6.25,0.95
00:52:00,3.7940,1.9020,5.1151,1.4852,73.94,76.07,624.0,7.22,48.1,62.4,6.24,0.95
00:52:40,3.8030,1.9056,5.1956,1.5064,75.10,77.16,625.0,7.25,48.3,62.5,6.25,0.95
00:53:20,3.8040,1.9055,5.2763,1.5276,76.27,78.24,626.0,7.25,48.3,62.6,6.26,0.95
00:54:00,3.8110,1.9099,5.3570,1.5488,77.44,79.33,626.0,7.28,48.5,62.6,6.26,0.95
00:54:40,3.8230,1.9135,5.4382,1.5701,78.61,80.42,632.0,7.32,48.8,63.2,6.32,0.95
00:55:20,3.8210,1.9139,5.5193,1.5913,79.78,81.51,627.0,7.31,48.7,62.7,6.27,0.96
00:56:00,3.8340,1.9213,5.6007,1.6126,80.96,82.60,629.0,7.37,49.1,62.9,6.29,0.96
00:56:40,3.8560,1.9329,5.6833,1.6341,82.15,83.70,635.0,7.45,49.7,63.5,6.35,0.96
00:57:20,3.8750,1.9439,5.7666,1.6556,83.36,84.80,635.0,7.53,50.2,63.5,6.35,0.97
00:58:00,3.8850,1.9488,5.8504,1.6772,84.57,85.91,641.0,7.57,50.5,64.1,6.41,0.97
00:58:40,3.9030,1.9574,5.9349,1.6989,85.79,87.02,642.0,7.64,50.9,64.2,6.42,0.98
00:59:20,3.9100,1.9629,6.0202,1.7207,87.02,88.13,645.0,7.67,51.1,64.5,6.45,0.97
01:00:00,3.9210,1.9688,6.1057,1.7426,88.26,89.25,644.0,7.72,51.5,64.4,6.44,0.98
01:00:40,3.9240,1.9692,6.1916,1.7645,89.50,90.37,652.0,7.73,51.5,65.2,6.52,0.97
01:01:20,3.9270,1.9696,6.2776,1.7864,90.74,91.50,654.0,7.73,51.5,65.4,6.54,0.97
01:02:00,3.9370,1.9776,6.3639,1.8083,91.99,92.62,653.0,7.79,51.9,65.3,6.53,0.98
01:02:40,3.9410,1.9783,6.4504,1.8303,93.24,93.74,656.0,7.8,52.0,65.6,6.56,0.97
01:03:20,3.9470,1.9791,6.5372,1.8523,94.50,94.87,657.0,7.81,52.1,65.7,6.57,0.97
01:04:00,3.9530,1.9843,6.6242,1.8743,95.75,96.00,657.0,7.84,52.3,65.7,6.57,0.98
01:04:40,3.9700,1.9926,6.7118,1.8964,97.02,97.13,660.0,7.91,52.7,66.0,6.6,0.98
01:05:20,3.3840,1.6998,6.7662,1.9140,97.81,98.03,654.0,5.75,38.3,65.4,6.54,0.72
01:06:00,3.9670,1.9891,6.8525,1.9359,99.05,99.15,659.0,7.89,52.6,65.9,6.59,0.98
01:06:40,4.0090,1.9961,6.9403,1.9579,100.32,100.28,666.0,8.0,53.3,66.6,6.66,0.98