File: output/2/iclever-1.csv
Time,Voltage(V),Current(A),Energy(Wh),Capacity(Ah),Energy Proportion(%),Capacity Proportion(%),Irradiance (Wh/m2),Irradiance/100
00:00:00,4.7810,2.0000,0.0266,0.0056,1.37,1.37,762,7.62
00:00:40,4.7880,1.9993,0.1330,0.0278,6.87,6.86,765,7.65
00:01:20,4.7870,1.9912,0.2391,0.0499,12.36,12.33,759,7.59
00:02:00,4.7870,1.9984,0.3454,0.0722,17.85,17.81,763,7.63
00:02:40,4.7850,1.9978,0.4516,0.0943,23.34,23.29,765,7.65
00:03:20,4.7820,1.9985,0.5578,0.1165,28.83,28.77,762,7.62
00:04:00,4.7780,1.9983,0.6639,0.1387,34.31,34.26,765,7.65
00:04:40,4.7770,1.9973,0.7700,0.1609,39.79,39.74,769,7.69
00:05:20,4.7750,1.9980,0.8760,0.1831,45.27,45.21,772,7.72
00:06:00,4.7740,1.9977,0.9819,0.2053,50.75,50.70,770,7.7
00:06:40,4.7730,1.9949,1.0878,0.2275,56.22,56.17,769,7.69
00:07:20,4.7750,1.9980,1.1938,0.2497,61.70,61.66,774,7.74
00:08:00,4.7720,1.9986,1.2997,0.2719,67.17,67.13,770,7.7
00:08:40,4.7710,1.9979,1.4056,0.2941,72.64,72.61,769,7.69
00:09:20,4.7720,1.9979,1.5115,0.3163,78.12,78.09,766,7.66
00:10:00,4.7720,1.9979,1.6174,0.3385,83.59,83.57,769,7.69
00:10:40,4.7700,1.9968,1.7233,0.3607,89.06,89.05,772,7.72
00:11:20,4.7710,1.9977,1.8292,0.3829,94.54,94.53,774,7.74
00:12:00,4.7690,1.9960,1.9349,0.4050,100.00,100.00,784,7.84
00:12:40,0.0000,0.0000,1.9349,0.4050,100.00,100.00,562,5.62
00:13:20,0.0000,0.0000,1.9349,0.4050,100.00,100.00,181.6,1.816
00:14:00,0.0000,0.0000,1.9349,0.4050,100.00,100.00,768,7.68
00:14:40,0.0000,0.0000,1.9349,0.4050,100.00,100.00,807,8.07
00:15:20,0.0000,0.0000,1.9349,0.4050,100.00,100.00,803,8.03
00:16:00,0.0000,0.0000,1.9349,0.4050,100.00,100.00,795,7.95
00:16:40,0.0000,0.0000,1.9349,0.4050,100.00,100.00,773,7.73
00:17:20,0.0000,0.0000,1.9349,0.4050,100.00,100.00,848,8.48
00:18:00,0.0000,0.0000,1.9349,0.4050,100.00,100.00,809,8.09
00:18:40,0.0000,0.0000,1.9349,0.4050,100.00,100.00,593,5.93
00:19:20,0.0000,0.0000,1.9349,0.4050,100.00,100.00,301,3.01
00:20:00,0.0000,0.0000,1.9349,0.4050,100.00,100.00,823,8.23
00:20:40,0.0000,0.0000,1.9349,0.4050,100.00,100.00,809,8.09
00:21:20,0.0000,0.0000,1.9349,0.4050,100.00,100.00,798,7.98
00:22:00,0.0000,0.0000,1.9349,0.4050,100.00,100.00,803,8.03
00:22:40,0.0000,0.0000,1.9349,0.4050,100.00,100.00,797,7.97
00:23:20,0.0000,0.0000,1.9349,0.4050,100.00,100.00,798,7.98
00:24:00,0.0000,0.0000,1.9349,0.4050,100.00,100.00,796,7.96
00:24:40,0.0000,0.0000,1.9349,0.4050,100.00,100.00,790,7.9
00:25:20,0.0000,0.0000,1.9349,0.4050,100.00,100.00,806,8.06
00:26:00,0.0000,0.0000,1.9349,0.4050,100.00,100.00,807,8.07
00:26:40,0.0000,0.0000,1.9349,0.4050,100.00,100.00,813,8.13
00:27:20,0.0000,0.0000,1.9349,0.4050,100.00,100.00,816,8.16
00:28:00,0.0000,0.0000,1.9349,0.4050,100.00,100.00,818,8.18
00:28:40,0.0000,0.0000,1.9349,0.4050,100.00,100.00,823,8.23
00:29:20,0.0000,0.0000,1.9349,0.4050,100.00,100.00,823,8.23
00:30:00,0.0000,0.0000,1.9349,0.4050,100.00,100.00,820,8.2
00:30:40,0.0000,0.0000,1.9349,0.4050,100.00,100.00,825,8.25
00:31:20,0.0000,0.0000,1.9349,0.4050,100.00,100.00,818,8.18
00:32:00,0.0000,0.0000,1.9349,0.4050,100.00,100.00,827,8.27
00:32:40,0.0000,0.0000,1.9349,0.4050,100.00,100.00,828,8.28
00:33:20,0.0000,0.0000,1.9349,0.4050,100.00,100.00,836,8.36
00:34:00,0.0000,0.0000,1.9349,0.4050,100.00,100.00,844,8.44
00:34:40,0.0000,0.0000,1.9349,0.4050,100.00,100.00,848,8.48
00:35:20,0.0000,0.0000,1.9349,0.4050,100.00,100.00,848,8.48
00:36:00,0.0000,0.0000,1.9349,0.4050,100.00,100.00,839,8.39
00:36:40,0.0000,0.0000,1.9349,0.4050,100.00,100.00,843,8.43
00:37:20,0.0000,0.0000,1.9349,0.4050,100.00,100.00,841,8.41
00:38:00,0.0000,0.0000,1.9349,0.4050,100.00,100.00,840,8.4
00:38:40,0.0000,0.0000,1.9349,0.4050,100.00,100.00,847,8.47
00:39:20,0.0000,0.0000,1.9349,0.4050,100.00,100.00,842,8.42
00:40:00,0.0000,0.0000,1.9349,0.4050,100.00,100.00,842,8.42
00:40:40,0.0000,0.0000,1.9349,0.4050,100.00,100.00,839,8.39
00:41:20,0.0000,0.0000,1.9349,0.4050,100.00,100.00,839,8.39
00:42:00,0.0000,0.0000,1.9349,0.4050,100.00,100.00,835,8.35
00:42:40,0.0000,0.0000,1.9349,0.4050,100.00,100.00,830,8.3
00:43:20,0.0000,0.0000,1.9349,0.4050,100.00,100.00,826,8.26
00:44:00,0.0000,0.0000,1.9349,0.4050,100.00,100.00,821,8.21
00:44:40,0.0000,0.0000,1.9349,0.4050,100.00,100.00,816,8.16
00:45:20,0.0000,0.0000,1.9349,0.4050,100.00,100.00,817,8.17
00:46:00,0.0000,0.0000,1.9349,0.4050,100.00,100.00,819,8.19
00:46:40,0.0000,0.0000,1.9349,0.4050,100.00,100.00,816,8.16
00:47:20,0.0000,0.0000,1.9349,0.4050,100.00,100.00,822,8.22
00:48:00,0.0000,0.0000,1.9349,0.4050,100.00,100.00,838,8.38
00:48:40,0.0000,0.0000,1.9349,0.4050,100.00,100.00,834,8.34
00:49:20,0.0000,0.0000,1.9349,0.4050,100.00,100.00,826,8.26
00:50:00,0.0000,0.0000,1.9349,0.4050,100.00,100.00,829,8.29
00:50:40,0.0000,0.0000,1.9349,0.4050,100.00,100.00,834,8.34
00:51:20,0.0000,0.0000,1.9349,0.4050,100.00,100.00,828,8.28
00:52:00,0.0000,0.0000,1.9349,0.4050,100.00,100.00,830,8.3
00:52:40,0.0000,0.0000,1.9349,0.4050,100.00,100.00,829,8.29
00:53:20,0.0000,0.0000,1.9349,0.4050,100.00,100.00,834,8.34
00:54:00,0.0000,0.0000,1.9349,0.4050,100.00,100.00,831,8.31
00:54:40,0.0000,0.0000,1.9349,0.4050,100.00,100.00,834,8.34
00:55:20,0.0000,0.0000,1.9349,0.4050,100.00,100.00,840,8.4
00:56:00,0.0000,0.0000,1.9349,0.4050,100.00,100.00,839,8.39
00:56:40,0.0000,0.0000,1.9349,0.4050,100.00,100.00,835,8.35
00:57:20,0.0000,0.0000,1.9349,0.4050,100.00,100.00,832,8.32
00:58:00,0.0000,0.0000,1.9349,0.4050,100.00,100.00,830,8.3
00:58:40,0.0000,0.0000,1.9349,0.4050,100.00,100.00,828,8.28
00:59:20,0.0000,0.0000,1.9349,0.4050,100.00,100.00,824,8.24
01:00:00,0.0000,0.0000,1.9349,0.4050,100.00,100.00,834,8.34
01:00:40,0.0000,0.0000,1.9349,0.4050,100.00,100.00,838,8.38
01:01:20,0.0000,0.0000,1.9349,0.4050,100.00,100.00,833,8.33
01:02:00,0.0000,0.0000,1.9349,0.4050,100.00,100.00,833,8.33
01:02:40,0.0000,0.0000,1.9349,0.4050,100.00,100.00,834,8.34
01:03:20,0.0000,0.0000,1.9349,0.4050,100.00,100.00,834,8.34
01:04:00,0.0000,0.0000,1.9349,0.4050,100.00,100.00,784,7.84
01:04:40,0.0000,0.0000,1.9349,0.4050,100.00,100.00,843,8.43
01:05:20,0.0000,0.0000,1.9349,0.4050,100.00,100.00,165.3,1.653
01:06:00,0.0000,0.0000,1.9349,0.4050,100.00,100.00,291,2.91
01:06:40,0.0000,0.0000,1.9349,0.4050,100.00,100.00,872,8.72
01:07:20,0.0000,0.0000,1.9349,0.4050,100.00,100.00,868,8.68
01:08:00,0.0000,0.0000,1.9349,0.4050,100.00,100.00,861,8.61
01:08:40,0.0000,0.0000,1.9349,0.4050,100.00,100.00,866,8.66
01:09:20,0.0000,0.0000,1.9349,0.4050,100.00,100.00,879,8.79
01:10:00,0.0000,0.0000,1.9349,0.4050,100.00,100.00,900,9.0
01:10:40,0.0000,0.0000,1.9349,0.4050,100.00,100.00,198.0,1.98
01:11:20,0.0000,0.0000,1.9349,0.4050,100.00,100.00,162.0,1.62
01:12:00,0.0000,0.0000,1.9349,0.4050,100.00,100.00,837,8.37
01:12:40,0.0000,0.0000,1.9349,0.4050,100.00,100.00,849,8.49
01:13:20,0.0000,0.0000,1.9349,0.4050,100.00,100.00,886,8.86
01:14:00,0.0000,0.0000,1.9349,0.4050,100.00,100.00,882,8.82
01:14:40,0.0000,0.0000,1.9349,0.4050,100.00,100.00,876,8.76
01:15:20,0.0000,0.0000,1.9349,0.4050,100.00,100.00,865,8.65
01:16:00,0.0000,0.0000,1.9349,0.4050,100.00,100.00,867,8.67
01:16:40,0.0000,0.0000,1.9349,0.4050,100.00,100.00,877,8.77
01:17:20,0.0000,0.0000,1.9349,0.4050,100.00,100.00,873,8.73
01:18:00,0.0000,0.0000,1.9349,0.4050,100.00,100.00,861,8.61
01:18:40,0.0000,0.0000,1.9349,0.4050,100.00,100.00,849,8.49
01:19:20,0.0000,0.0000,1.9349,0.4050,100.00,100.00,838,8.38
01:20:00,0.0000,0.0000,1.9349,0.4050,100.00,100.00,846,8.46
01:20:40,0.0000,0.0000,1.9349,0.4050,100.00,100.00,844,8.44
01:21:20,0.0000,0.0000,1.9349,0.4050,100.00,100.00,838,8.38
01:22:00,0.0000,0.0000,1.9349,0.4050,100.00,100.00,840,8.4
01:22:40,0.0000,0.0000,1.9349,0.4050,100.00,100.00,854,8.54
01:23:20,0.0000,0.0000,1.9349,0.4050,100.00,100.00,850,8.5
01:24:00,0.0000,0.0000,1.9349,0.4050,100.00,100.00,845,8.45
01:24:40,0.0000,0.0000,1.9349,0.4050,100.00,100.00,863,8.63
01:25:20,0.0000,0.0000,1.9349,0.4050,100.00,100.00,855,8.55
01:26:00,0.0000,0.0000,1.9349,0.4050,100.00,100.00,859,8.59
01:26:40,0.0000,0.0000,1.9349,0.4050,100.00,100.00,865,8.65
01:27:20,0.0000,0.0000,1.9349,0.4050,100.00,100.00,639,6.39
01:28:00,0.0000,0.0000,1.9349,0.4050,100.00,100.00,813,8.13
01:28:40,0.0000,0.0000,1.9349,0.4050,100.00,100.00,862,8.62
01:29:20,0.0000,0.0000,1.9349,0.4050,100.00,100.00,860,8.6
01:30:00,0.0000,0.0000,1.9349,0.4050,100.00,100.00,866,8.66
01:30:40,0.0000,0.0000,1.9349,0.4050,100.00,100.00,869,8.69
01:31:20,0.0000,0.0000,1.9349,0.4050,100.00,100.00,862,8.62
01:32:00,0.0000,0.0000,1.9349,0.4050,100.00,100.00,856,8.56
01:32:40,0.0000,0.0000,1.9349,0.4050,100.00,100.00,854,8.54
01:33:20,0.0000,0.0000,1.9349,0.4050,100.00,100.00,853,8.53
01:34:00,0.0000,0.0000,1.9349,0.4050,100.00,100.00,854,8.54
01:34:40,0.0000,0.0000,1.9349,0.4050,100.00,100.00,856,8.56
01:35:00,0.0000,0.0000,1.9349,0.4050,100.00,100.00,857,8.57