File: output/8/rynotuff-4.csv
Time,Voltage(V),Current(A),Energy(Wh),Capacity(Ah),Energy Proportion(%),Capacity Proportion(%),Irradiance(W/m2),Power(W)
00:00:00,4.9310,2.0109,0.0055,0.0011,0.04,0.04,0.0,9.92
00:00:40,4.8520,2.3969,0.1276,0.0265,0.97,0.91,0.0,11.63
00:01:20,4.8500,2.3957,0.2438,0.0504,1.85,1.74,0.0,11.62
00:02:00,4.8480,2.3956,0.3729,0.0771,2.83,2.65,0.0,11.61
00:02:40,4.8450,2.3949,0.5019,0.1037,3.81,3.57,0.0,11.6
00:03:20,4.7980,2.3940,0.6302,0.1303,4.78,4.48,0.0,11.49
00:04:00,4.7010,2.3932,0.7562,0.1569,5.74,5.40,0.0,11.25
00:04:40,4.6970,2.3936,0.8812,0.1835,6.69,6.31,0.0,11.24
00:05:20,4.6610,2.3937,1.0053,0.2101,7.63,7.23,0.0,11.16
00:06:00,4.6570,2.3934,1.1293,0.2367,8.57,8.14,0.0,11.15
00:06:40,4.6530,2.3933,1.2530,0.2633,9.51,9.06,0.0,11.14
00:07:20,4.6060,2.3924,1.3762,0.2898,10.44,9.97,0.0,11.02
00:08:00,4.5630,2.3937,1.4978,0.3164,11.37,10.89,0.0,10.92
00:08:40,4.5540,2.3932,1.6190,0.3430,12.29,11.80,0.0,10.9
00:09:20,4.5700,2.3937,1.7401,0.3696,13.21,12.72,0.0,10.94
00:10:00,4.6220,2.3936,1.8625,0.3962,14.13,13.63,0.0,11.06
00:10:40,4.6240,2.3935,1.9856,0.4228,15.07,14.55,0.0,11.07
00:11:20,4.6250,2.3929,2.1084,0.4494,16.00,15.46,0.0,11.07
00:12:00,4.6160,2.3926,2.2312,0.4760,16.93,16.38,0.0,11.04
00:12:40,4.6160,2.3929,2.3541,0.5026,17.87,17.29,0.0,11.05
00:13:20,4.6100,2.3933,2.4766,0.5292,18.80,18.20,0.0,11.03
00:14:00,4.6180,2.3936,2.5993,0.5558,19.73,19.12,0.0,11.05
00:14:40,4.6010,2.3938,2.7219,0.5824,20.66,20.03,0.0,11.01
00:15:20,4.6100,2.3927,2.8444,0.6090,21.59,20.95,0.0,11.03
00:16:00,4.5610,2.3935,2.9661,0.6356,22.51,21.86,0.0,10.92
00:16:40,4.5430,2.3928,3.0816,0.6608,23.39,22.73,0.0,10.87
00:17:20,4.5700,2.3936,3.1994,0.6866,24.28,23.62,0.0,10.94
00:18:00,4.6520,2.3933,3.3221,0.7132,25.21,24.54,0.0,11.13
00:18:40,4.6820,2.3933,3.4382,0.7380,26.09,25.39,0.0,11.21
00:19:20,4.6990,2.3932,3.5632,0.7646,27.04,26.30,0.0,11.25
00:20:00,4.6530,2.3936,3.6660,0.7875,27.82,27.09,0.0,11.14
00:20:40,4.9380,1.8632,3.7537,0.8076,28.49,27.78,0.0,9.2
00:21:20,5.3040,0.1058,3.8710,0.8329,29.38,28.65,0.0,0.56
00:22:00,4.6350,2.3928,3.9874,0.8580,30.26,29.52,0.0,11.09
00:22:40,3.5980,2.2353,4.0963,0.8820,31.09,30.34,0.0,8.04
00:23:20,4.5710,2.3940,4.1822,0.9035,31.74,31.08,0.0,10.94
00:24:00,5.3280,0.0544,4.2905,0.9272,32.56,31.90,0.0,0.29
00:24:40,5.3290,0.0093,4.3954,0.9500,33.36,32.68,0.0,0.05
00:25:20,4.8200,2.2310,4.5051,0.9740,34.19,33.51,0.0,10.75
00:26:00,5.0490,1.3761,4.6137,0.9977,35.01,34.32,0.0,6.95
00:26:40,4.5190,2.3933,4.7163,1.0204,35.79,35.10,0.0,10.82
00:27:20,4.5290,2.3928,4.8196,1.0431,36.58,35.88,0.0,10.84
00:28:00,4.5340,2.3927,4.9192,1.0650,37.33,36.64,0.0,10.85
00:28:40,4.5470,2.3895,5.0155,1.0862,38.06,37.37,0.0,10.87
00:29:20,4.5810,2.3935,5.1162,1.1082,38.83,38.12,0.0,10.96
00:30:00,5.1350,0.9893,5.2194,1.1303,39.61,38.88,0.0,5.08
00:30:40,5.1130,1.0142,5.3218,1.1522,40.39,39.64,0.0,5.19
00:31:20,5.3300,0.0094,5.4153,1.1721,41.10,40.32,0.0,0.05
00:32:00,4.6780,2.3934,5.5239,1.1953,41.92,41.12,0.0,11.2
00:32:40,4.4330,2.3940,5.6197,1.2174,42.65,41.88,0.0,10.61
00:33:20,3.3860,2.0956,5.6994,1.2403,43.25,42.67,0.0,7.1
00:34:00,4.5790,2.3934,5.7885,1.2619,43.93,43.41,0.0,10.96
00:34:40,4.6810,2.3928,5.8881,1.2833,44.68,44.15,0.0,11.2
00:35:20,4.6180,2.3925,5.9998,1.3074,45.53,44.98,0.0,11.05
00:36:00,4.6310,2.3916,6.1060,1.3307,46.34,45.78,0.0,11.08
00:36:40,4.6250,2.3918,6.2051,1.3521,47.09,46.51,0.0,11.06
00:37:20,4.7180,2.3919,6.3076,1.3742,47.87,47.27,0.0,11.28
00:38:00,4.7250,2.3918,6.4053,1.3947,48.61,47.98,0.0,11.3
00:38:40,4.6880,2.3914,6.5013,1.4153,49.34,48.69,0.0,11.21
00:39:20,5.3290,0.0093,6.6061,1.4382,50.13,49.48,0.0,0.05
00:40:00,4.5680,2.3920,6.7034,1.4599,50.87,50.22,0.0,10.93
00:40:40,4.5430,2.3922,6.7999,1.4808,51.60,50.94,0.0,10.87
00:41:20,4.5210,2.3924,6.8875,1.5003,52.27,51.61,0.0,10.82
00:42:00,2.7370,0.4657,6.9745,1.5196,52.93,52.27,0.0,1.27
00:42:40,2.7450,0.2772,7.0597,1.5385,53.58,52.92,0.0,0.76
00:43:20,3.9770,1.9442,7.1532,1.5592,54.29,53.64,0.0,7.73
00:44:00,4.5020,2.3924,7.2472,1.5800,55.00,54.35,0.0,10.77
00:44:40,4.5550,2.3933,7.3503,1.6027,55.78,55.14,0.0,10.9
00:45:20,4.5910,2.3925,7.4496,1.6245,56.54,55.89,0.0,10.98
00:46:00,4.6010,2.3921,7.5543,1.6471,57.33,56.66,0.0,11.01
00:46:40,4.6350,2.3928,7.6598,1.6699,58.13,57.45,0.0,11.09
00:47:20,4.5960,2.3939,7.7690,1.6935,58.96,58.26,0.0,11.0
00:48:00,4.5530,2.3940,7.8791,1.7176,59.79,59.09,0.0,10.9
00:48:40,4.5560,2.3942,7.9831,1.7403,60.58,59.87,0.0,10.91
00:49:20,4.5710,2.3929,8.0811,1.7618,61.33,60.61,0.0,10.94
00:50:00,4.5820,2.3935,8.1856,1.7845,62.12,61.39,0.0,10.97
00:50:40,4.3660,2.2280,8.2911,1.8077,62.92,62.19,0.0,9.73
00:51:20,4.5330,2.3946,8.3960,1.8307,63.72,62.98,0.0,10.85
00:52:00,4.5480,2.3941,8.5057,1.8548,64.55,63.81,0.0,10.89
00:52:40,4.5490,2.3929,8.6094,1.8776,65.34,64.59,0.0,10.89
00:53:20,5.3290,0.0094,8.7068,1.8991,66.08,65.33,0.0,0.05
00:54:00,4.4760,2.3955,8.8142,1.9229,66.89,66.15,0.0,10.72
00:54:40,4.5180,2.3946,8.9222,1.9470,67.71,66.98,0.0,10.82
00:55:20,4.5180,2.3945,9.0245,1.9696,68.49,67.76,0.0,10.82
00:56:00,4.5010,2.3960,9.1303,1.9934,69.29,68.57,0.0,10.78
00:56:40,4.4660,2.3947,9.2310,2.0159,70.05,69.35,0.0,10.69
00:57:20,4.4590,2.3950,9.3262,2.0372,70.78,70.08,0.0,10.68
00:58:00,3.5260,0.2636,9.4283,2.0600,71.55,70.87,0.0,0.93
00:58:40,4.4030,2.3931,9.5282,2.0826,72.31,71.65,0.0,10.54
00:59:20,4.4000,2.3935,9.6335,2.1066,73.11,72.47,0.0,10.53
01:00:00,4.3920,2.3952,9.7393,2.1307,73.91,73.30,0.0,10.52
01:00:40,4.4360,2.3943,9.8505,2.1557,74.76,74.16,0.0,10.62
01:01:20,4.5040,2.3945,9.9519,2.1784,75.52,74.94,0.0,10.78
01:02:00,4.4870,2.3945,10.0596,2.2023,76.34,75.76,0.0,10.74
01:02:40,4.4950,2.3939,10.1614,2.2249,77.12,76.54,0.0,10.76
01:03:20,4.5260,2.3945,10.2703,2.2490,77.94,77.37,0.0,10.84
01:04:00,4.5530,2.3932,10.3792,2.2729,78.77,78.19,0.0,10.9
01:04:40,4.6000,2.3932,10.4888,2.2968,79.60,79.01,0.0,11.01
01:05:20,4.5660,2.3934,10.5984,2.3207,80.43,79.84,0.0,10.93
01:06:00,4.6090,2.3930,10.7162,2.3466,81.33,80.73,0.0,11.03
01:06:40,5.3290,0.0093,10.8208,2.3694,82.12,81.51,0.0,0.05
01:07:20,4.4130,2.3918,10.9290,2.3932,82.94,82.33,0.0,10.56
01:08:00,4.4610,2.3929,11.0313,2.4158,83.72,83.11,0.0,10.67
01:08:40,4.5820,2.3929,11.1424,2.4400,84.56,83.94,0.0,10.96
01:09:20,5.3290,0.0093,11.2395,2.4613,85.30,84.67,0.0,0.05
01:10:00,2.3250,0.4572,11.2813,2.4745,85.61,85.13,0.0,1.06
01:10:40,2.3450,0.4797,11.2936,2.4798,85.71,85.31,0.0,1.12
01:11:20,2.4130,0.5584,11.3069,2.4854,85.81,85.50,0.0,1.35
01:12:00,2.8970,0.8604,11.3275,2.4932,85.96,85.77,0.0,2.49
01:12:40,3.5890,2.2120,11.3700,2.5065,86.29,86.23,0.0,7.94
01:13:20,3.1730,1.9646,11.4257,2.5234,86.71,86.81,0.0,6.23
01:14:00,4.8310,2.3946,11.5370,2.5472,87.55,87.63,0.0,11.57
01:14:40,4.8280,2.3942,11.6655,2.5738,88.53,88.54,0.0,11.56
01:15:20,4.8260,2.3950,11.7939,2.6004,89.50,89.46,0.0,11.56
01:16:00,4.8200,2.3932,11.9223,2.6270,90.48,90.37,0.0,11.54
01:16:40,4.7420,2.3936,12.0493,2.6536,91.44,91.29,0.0,11.35
01:17:20,4.7200,2.3931,12.1752,2.6802,92.40,92.20,0.0,11.3
01:18:00,4.6420,2.3929,12.2962,2.7063,93.32,93.10,0.0,11.11
01:18:40,4.5050,2.3944,12.3941,2.7276,94.06,93.83,0.0,10.79
01:19:20,4.6360,2.3946,12.5175,2.7542,95.00,94.75,0.0,11.1
01:20:00,4.6210,2.3941,12.6345,2.7795,95.88,95.62,0.0,11.06
01:20:40,4.7590,2.3109,12.7505,2.8045,96.76,96.48,0.0,11.0
01:21:20,4.6020,2.3937,12.8605,2.8285,97.60,97.30,0.0,11.02
01:22:00,4.6530,2.3938,12.9635,2.8508,98.38,98.07,0.0,11.14
01:22:40,4.6110,2.3935,13.0686,2.8734,99.18,98.85,0.0,11.04
01:23:20,2.3320,0.4775,13.1371,2.8901,99.70,99.42,0.0,1.11
01:24:00,2.3360,0.4677,13.1494,2.8954,99.79,99.60,0.0,1.09
01:24:40,2.3720,0.4974,13.1617,2.9006,99.88,99.78,0.0,1.18
01:25:20,2.5520,0.6334,13.1759,2.9065,99.99,99.99,0.0,1.62