File: output/6/bigblue-3.csv
Time,Voltage(V),Current(A),Energy(Wh),Capacity(Ah),Energy Proportion(%),Capacity Proportion(%),Irradiance(W/m2),Power(W),Sunlight Level
00:00:00,3.2130,2.2516,0.0201,0.0063,0.18,0.21,408.0,7.23,4.08
00:00:40,3.2680,2.2358,0.0968,0.0304,0.89,1.04,417.0,7.31,4.17
00:01:20,3.2820,2.2360,0.1782,0.0552,1.63,1.88,419.0,7.34,4.19
00:02:00,3.2980,2.2345,0.2600,0.0801,2.38,2.73,422.0,7.37,4.22
00:02:40,3.3070,2.2333,0.3420,0.1049,3.13,3.58,424.0,7.39,4.24
00:03:20,3.3830,2.2125,0.4248,0.1295,3.89,4.42,426.0,7.48,4.26
00:04:00,3.3880,2.2130,0.5081,0.1541,4.66,5.25,430.0,7.5,4.3
00:04:40,3.3930,2.2178,0.5916,0.1787,5.42,6.09,431.0,7.52,4.31
00:05:20,3.3910,2.2190,0.6752,0.2034,6.19,6.93,433.0,7.52,4.33
00:06:00,3.3860,2.2192,0.7588,0.2281,6.96,7.77,434.0,7.51,4.34
00:06:40,3.3970,2.2196,0.8425,0.2527,7.72,8.61,435.0,7.54,4.35
00:07:20,3.4040,2.2255,0.9265,0.2774,8.49,9.46,437.0,7.58,4.37
00:08:00,3.4140,2.2283,1.0109,0.3022,9.27,10.30,438.0,7.61,4.38
00:08:40,3.4190,2.2316,1.0956,0.3270,10.04,11.15,441.0,7.63,4.41
00:09:20,3.4250,2.2384,1.1807,0.3518,10.82,11.99,444.0,7.67,4.44
00:10:00,3.4290,2.2391,1.2659,0.3767,11.60,12.84,444.0,7.68,4.44
00:10:40,3.4350,2.2430,1.3514,0.4016,12.39,13.69,447.0,7.7,4.47
00:11:20,3.4380,2.2432,1.4371,0.4265,13.17,14.54,446.0,7.71,4.46
00:12:00,3.4100,2.2431,1.5221,0.4514,13.95,15.39,448.0,7.65,4.48
00:12:40,3.4120,2.2438,1.6072,0.4764,14.73,16.24,448.0,7.66,4.48
00:13:20,3.4030,2.2433,1.6920,0.5013,15.51,17.09,449.0,7.63,4.49
00:14:00,3.4230,2.2536,1.7774,0.5263,16.29,17.94,452.0,7.71,4.52
00:14:40,3.4300,2.2584,1.8634,0.5514,17.08,18.79,454.0,7.75,4.54
00:15:20,3.4440,2.2655,1.9499,0.5765,17.87,19.65,456.0,7.8,4.56
00:16:00,3.4450,2.2633,2.0364,0.6017,18.67,20.51,456.0,7.8,4.56
00:16:40,3.4600,2.2710,2.1235,0.6269,19.47,21.37,461.0,7.86,4.61
00:17:20,3.4680,2.2743,2.2110,0.6521,20.27,22.23,460.0,7.89,4.6
00:18:00,3.4810,2.2793,2.2990,0.6774,21.07,23.09,466.0,7.93,4.66
00:18:40,3.4920,2.2841,2.3875,0.7028,21.88,23.96,469.0,7.98,4.69
00:19:20,3.4990,2.2872,2.4762,0.7282,22.70,24.82,470.0,8.0,4.7
00:20:00,3.5060,2.2909,2.5654,0.7536,23.52,25.69,470.0,8.03,4.7
00:20:40,3.5090,2.2916,2.6548,0.7791,24.34,26.56,473.0,8.04,4.73
00:21:20,3.5190,2.2942,2.7444,0.8046,25.16,27.43,477.0,8.07,4.77
00:22:00,3.5270,2.3016,2.8345,0.8301,25.98,28.30,477.0,8.12,4.77
00:22:40,3.5310,2.3015,2.9247,0.8557,26.81,29.17,477.0,8.13,4.77
00:23:20,3.5330,2.3031,3.0150,0.8813,27.64,30.04,481.0,8.14,4.81
00:24:00,3.5400,2.3060,3.1057,0.9069,28.47,30.91,481.0,8.16,4.81
00:24:40,3.5470,2.3085,3.1966,0.9325,29.30,31.79,484.0,8.19,4.84
00:25:20,3.5580,2.3125,3.2878,0.9582,30.14,32.66,484.0,8.23,4.84
00:26:00,3.5670,2.3183,3.3796,0.9840,30.98,33.54,489.0,8.27,4.89
00:26:40,3.5850,2.3236,3.4719,1.0097,31.83,34.42,491.0,8.33,4.91
00:27:20,3.6000,2.3324,3.5648,1.0356,32.68,35.30,494.0,8.4,4.94
00:28:00,3.6130,2.3383,3.6584,1.0616,33.53,36.19,496.0,8.45,4.96
00:28:40,3.6240,2.3450,3.7527,1.0876,34.40,37.07,498.0,8.5,4.98
00:29:20,3.6290,2.3502,3.8472,1.1136,35.27,37.96,501.0,8.53,5.01
00:30:00,3.6430,2.3552,3.9424,1.1398,36.14,38.85,504.0,8.58,5.04
00:30:40,3.6510,2.3594,4.0380,1.1660,37.01,39.75,502.0,8.61,5.02
00:31:20,3.6590,2.3652,4.1340,1.1923,37.89,40.64,503.0,8.65,5.03
00:32:00,3.6690,2.3730,4.2305,1.2186,38.78,41.54,506.0,8.71,5.06
00:32:40,3.6780,2.3774,4.3274,1.2450,39.67,42.44,507.0,8.74,5.07
00:33:20,3.6790,2.3779,4.4247,1.2714,40.56,43.34,513.0,8.75,5.13
00:34:00,3.6850,2.3805,4.5221,1.2978,41.45,44.24,510.0,8.77,5.1
00:34:40,3.6930,2.3864,4.6199,1.3243,42.35,45.14,515.0,8.81,5.15
00:35:20,3.7010,2.3918,4.7181,1.3509,43.25,46.05,514.0,8.85,5.14
00:36:00,3.7060,2.3965,4.8167,1.3775,44.15,46.96,517.0,8.88,5.17
00:36:40,3.7090,2.3961,4.9154,1.4041,45.06,47.86,519.0,8.89,5.19
00:37:20,3.7120,2.3984,5.0142,1.4308,45.96,48.77,520.0,8.9,5.2
00:38:00,3.7140,2.4005,5.1132,1.4574,46.87,49.68,520.0,8.92,5.2
00:38:40,3.7200,2.4046,5.2123,1.4841,47.78,50.59,523.0,8.95,5.23
00:39:20,3.7280,2.4091,5.3119,1.5108,48.69,51.50,525.0,8.98,5.25
00:40:00,3.7430,2.4191,5.4122,1.5377,49.61,52.42,529.0,9.05,5.29
00:40:40,3.7490,2.4226,5.5130,1.5646,50.53,53.33,532.0,9.08,5.32
00:41:20,3.7580,2.4291,5.6141,1.5915,51.46,54.25,535.0,9.13,5.35
00:42:00,3.7750,2.4381,5.7044,1.6168,52.29,55.11,529.0,9.2,5.29
00:42:40,3.7380,2.4149,5.8064,1.6439,53.22,56.03,535.0,9.03,5.35
00:43:20,3.7810,2.4439,5.9095,1.6711,54.17,56.96,543.0,9.24,5.43
00:44:00,3.7100,2.3983,6.0098,1.6979,55.09,57.88,533.0,8.9,5.33
00:44:40,3.7970,2.4548,6.1122,1.7250,56.03,58.80,546.0,9.32,5.46
00:45:20,3.8330,2.4794,6.2171,1.7525,56.99,59.74,557.0,9.5,5.57
00:46:00,3.8550,2.4910,6.3232,1.7801,57.96,60.68,564.0,9.6,5.64
00:46:40,3.8720,2.4951,6.4303,1.8078,58.94,61.62,567.0,9.66,5.67
00:47:20,3.9140,2.4978,6.5385,1.8355,59.94,62.57,573.0,9.78,5.73
00:48:00,3.9510,2.5013,6.6479,1.8633,60.94,63.52,577.0,9.88,5.77
00:48:40,4.0150,2.5040,6.7588,1.8911,61.95,64.46,585.0,10.05,5.85
00:49:20,4.0540,2.5044,6.8713,1.9190,62.99,65.41,591.0,10.15,5.91
00:50:00,4.0740,2.5028,6.9843,1.9468,64.02,66.36,597.0,10.2,5.97
00:50:40,4.0920,2.5030,7.0980,1.9746,65.06,67.31,602.0,10.24,6.02
00:51:20,4.1070,2.5027,7.2122,2.0024,66.11,68.26,606.0,10.28,6.06
00:52:00,4.1000,2.5027,7.3263,2.0302,67.16,69.20,602.0,10.26,6.02
00:52:40,4.1120,2.5037,7.4405,2.0580,68.20,70.15,601.0,10.3,6.01
00:53:20,4.1390,2.5035,7.5554,2.0858,69.26,71.10,603.0,10.36,6.03
00:54:00,4.1400,2.5020,7.6705,2.1136,70.31,72.05,603.0,10.36,6.03
00:54:40,4.1250,2.5019,7.7854,2.1415,71.36,73.00,600.0,10.32,6.0
00:55:20,4.0950,2.5047,7.8998,2.1693,72.41,73.94,597.0,10.26,5.97
00:56:00,4.0720,2.5040,8.0134,2.1971,73.45,74.89,597.0,10.2,5.97
00:56:40,4.0540,2.5038,8.1263,2.2249,74.49,75.84,595.0,10.15,5.95
00:57:20,4.0490,2.5045,8.2389,2.2527,75.52,76.79,590.0,10.14,5.9
00:58:00,4.0470,2.5050,8.3516,2.2806,76.55,77.74,594.0,10.14,5.94
00:58:40,4.0350,2.5046,8.4640,2.3084,77.59,78.69,593.0,10.11,5.93
00:59:20,4.0380,2.5040,8.5762,2.3362,78.61,79.64,596.0,10.11,5.96
01:00:00,4.0740,2.5037,8.6891,2.3640,79.65,80.58,600.0,10.2,6.0
01:00:40,4.0950,2.5028,8.8029,2.3918,80.69,81.53,602.0,10.25,6.02
01:01:20,4.0950,2.5027,8.9167,2.4196,81.74,82.48,606.0,10.25,6.06
01:02:00,4.0990,2.5028,9.0305,2.4475,82.78,83.43,603.0,10.26,6.03
01:02:40,4.1100,2.5031,9.1448,2.4753,83.83,84.38,607.0,10.29,6.07
01:03:20,4.1350,2.5035,9.2594,2.5031,84.88,85.32,608.0,10.35,6.08
01:04:00,4.1590,2.5028,9.3748,2.5309,85.93,86.27,611.0,10.41,6.11
01:04:40,4.1900,2.5032,9.4909,2.5587,87.00,87.22,614.0,10.49,6.14
01:05:20,4.1950,2.5040,9.6079,2.5865,88.07,88.17,616.0,10.5,6.16
01:06:00,4.2030,2.5031,9.7245,2.6143,89.14,89.12,615.0,10.52,6.15
01:06:40,4.1970,2.5053,9.8414,2.6422,90.21,90.06,614.0,10.51,6.14
01:07:20,4.1640,2.5044,9.9583,2.6700,91.28,91.01,614.0,10.43,6.14
01:08:00,3.0710,2.0869,10.0545,2.6963,92.16,91.91,481.0,6.41,4.81
01:08:40,4.3740,2.5060,10.1705,2.7240,93.23,92.85,626.0,10.96,6.26
01:09:20,4.4150,2.5060,10.2931,2.7518,94.35,93.80,635.0,11.06,6.35
01:10:00,4.4250,2.5055,10.4162,2.7797,95.48,94.75,635.0,11.09,6.35
01:10:40,2.6070,0.9949,10.4992,2.8016,96.24,95.50,111.5,2.59,1.115
01:11:20,2.7010,1.4743,10.5256,2.8117,96.48,95.84,147.6,3.98,1.476
01:12:00,2.4860,0.5607,10.5544,2.8220,96.75,96.20,89.9,1.39,0.899
01:12:40,2.4980,0.6014,10.5710,2.8287,96.90,96.42,95.7,1.5,0.957
01:13:20,2.5060,0.6118,10.5877,2.8354,97.05,96.65,92.8,1.53,0.928
01:14:00,2.5680,0.8763,10.6119,2.8448,97.27,96.97,182.5,2.25,1.825
01:14:40,2.5450,0.8127,10.6335,2.8533,97.47,97.26,122.4,2.07,1.224
01:15:20,2.5750,0.9803,10.6594,2.8634,97.71,97.61,148.0,2.52,1.48
01:16:00,3.5360,2.2895,10.7052,2.8787,98.13,98.13,457.0,8.1,4.57
01:16:40,2.8290,1.8995,10.8032,2.9045,99.03,99.01,539.0,5.37,5.39
01:17:20,2.5890,1.0644,10.8322,2.9157,99.29,99.39,154.3,2.76,1.543
01:18:00,4.7740,2.5042,10.9425,2.9406,100.30,100.24,613.0,11.96,6.13