File: output/4/aeiusny-2.csv
Time,Voltage(V),Current(A),Energy(Wh),Capacity(Ah),Energy Proportion(%),Capacity Proportion(%),Irradiance(W/m2),Irradiance/100,Power(W),Efficiency(%),Power Score,Sun Score,Efficiency Score
00:00:00,4.6410,1.9902,0.0257,0.0055,100.00,2.58,793,7.93,9.24,0.71,79.3,88.0,-8.7
00:00:50,0.0000,0.2234,0.0257,0.0088,100.00,4.09,786,7.86,0.0,0.0,78.6,0.0,78.6
00:01:40,0.0000,0.1869,0.0257,0.0115,100.00,5.37,787,7.87,0.0,0.0,78.7,0.0,78.7
00:02:30,0.0000,0.2616,0.0257,0.0146,100.00,6.82,786,7.86,0.0,0.0,78.6,0.0,78.6
00:03:20,0.0000,0.2681,0.0257,0.0173,100.00,8.06,783,7.83,0.0,0.0,78.3,0.0,78.3
00:04:10,0.0000,0.0002,0.0257,0.0194,100.00,9.06,793,7.93,0.0,0.0,79.3,0.0,79.3
00:05:00,0.0000,0.1177,0.0257,0.0213,100.00,9.93,788,7.88,0.0,0.0,78.8,0.0,78.8
00:05:50,0.0000,0.2111,0.0257,0.0237,100.00,11.08,793,7.93,0.0,0.0,79.3,0.0,79.3
00:06:40,0.0000,0.1391,0.0257,0.0262,100.00,12.24,792,7.92,0.0,0.0,79.2,0.0,79.2
00:07:30,0.0000,0.1827,0.0257,0.0288,100.00,13.44,792,7.92,0.0,0.0,79.2,0.0,79.2
00:08:20,0.0000,0.1609,0.0257,0.0312,100.00,14.56,802,8.02,0.0,0.0,80.2,0.0,80.2
00:09:10,0.0000,0.1398,0.0257,0.0334,100.00,15.59,800,8.0,0.0,0.0,80.0,0.0,80.0
00:10:00,0.0000,0.1661,0.0257,0.0354,100.00,16.53,802,8.02,0.0,0.0,80.2,0.0,80.2
00:10:50,0.0000,0.1341,0.0257,0.0376,100.00,17.58,802,8.02,0.0,0.0,80.2,0.0,80.2
00:11:40,0.0000,0.1474,0.0257,0.0397,100.00,18.55,801,8.01,0.0,0.0,80.1,0.0,80.1
00:12:30,0.0000,0.1362,0.0257,0.0418,100.00,19.53,813,8.13,0.0,0.0,81.3,0.0,81.3
00:13:20,0.0000,0.1283,0.0257,0.0437,100.00,20.41,815,8.15,0.0,0.0,81.5,0.0,81.5
00:14:10,0.0000,0.1325,0.0257,0.0455,100.00,21.24,819,8.19,0.0,0.0,81.9,0.0,81.9
00:15:00,0.0000,0.1482,0.0257,0.0474,100.00,22.13,797,7.97,0.0,0.0,79.7,0.0,79.7
00:15:50,0.0000,0.1468,0.0257,0.0491,100.00,22.95,795,7.95,0.0,0.0,79.5,0.0,79.5
00:16:40,0.0000,0.1500,0.0257,0.0512,100.00,23.92,795,7.95,0.0,0.0,79.5,0.0,79.5
00:17:30,0.0000,0.1579,0.0257,0.0534,100.00,24.95,796,7.96,0.0,0.0,79.6,0.0,79.6
00:18:20,0.0000,0.1670,0.0257,0.0555,100.00,25.93,788,7.88,0.0,0.0,78.8,0.0,78.8
00:19:10,0.0000,0.1113,0.0257,0.0574,100.00,26.83,792,7.92,0.0,0.0,79.2,0.0,79.2
00:20:00,0.0000,0.1359,0.0257,0.0596,100.00,27.83,797,7.97,0.0,0.0,79.7,0.0,79.7
00:20:50,0.0000,0.1408,0.0257,0.0615,100.00,28.74,806,8.06,0.0,0.0,80.6,0.0,80.6
00:21:40,0.0000,0.1523,0.0257,0.0635,100.00,29.68,803,8.03,0.0,0.0,80.3,0.0,80.3
00:22:30,0.0000,0.1652,0.0257,0.0653,100.00,30.52,799,7.99,0.0,0.0,79.9,0.0,79.9
00:23:20,0.0000,0.1005,0.0257,0.0671,100.00,31.36,793,7.93,0.0,0.0,79.3,0.0,79.3
00:24:10,0.0000,0.1286,0.0257,0.0690,100.00,32.23,798,7.98,0.0,0.0,79.8,0.0,79.8
00:25:00,0.0000,0.1478,0.0257,0.0705,100.00,32.94,796,7.96,0.0,0.0,79.6,0.0,79.6
00:25:50,0.0000,0.1115,0.0257,0.0724,100.00,33.83,801,8.01,0.0,0.0,80.1,0.0,80.1
00:26:40,0.0000,0.1432,0.0257,0.0742,100.00,34.66,801,8.01,0.0,0.0,80.1,0.0,80.1
00:27:30,0.0000,0.1440,0.0257,0.0763,100.00,35.64,807,8.07,0.0,0.0,80.7,0.0,80.7
00:28:20,0.0000,0.1434,0.0257,0.0782,100.00,36.53,823,8.23,0.0,0.0,82.3,0.0,82.3
00:29:10,0.0000,0.1294,0.0257,0.0801,100.00,37.43,834,8.34,0.0,0.0,83.4,0.0,83.4
00:30:00,0.0000,0.1303,0.0257,0.0816,100.00,38.12,853,8.53,0.0,0.0,85.3,0.0,85.3
00:30:50,0.0000,0.1584,0.0257,0.0838,100.00,39.13,868,8.68,0.0,0.0,86.8,0.0,86.8
00:31:40,0.0000,0.1130,0.0257,0.0856,100.00,40.00,907,9.07,0.0,0.0,90.7,0.0,90.7
00:32:30,0.0000,0.1624,0.0257,0.0876,100.00,40.92,316,3.16,0.0,0.0,31.6,0.0,31.6
00:33:20,0.0000,0.1141,0.0257,0.0896,100.00,41.86,871,8.71,0.0,0.0,87.1,0.0,87.1
00:34:10,0.0000,0.1555,0.0257,0.0917,100.00,42.82,856,8.56,0.0,0.0,85.6,0.0,85.6
00:35:00,0.0000,0.1171,0.0257,0.0934,100.00,43.65,840,8.4,0.0,0.0,84.0,0.0,84.0
00:35:50,0.0000,0.1562,0.0257,0.0954,100.00,44.57,827,8.27,0.0,0.0,82.7,0.0,82.7
00:36:40,0.0000,0.1372,0.0257,0.0975,100.00,45.54,809,8.09,0.0,0.0,80.9,0.0,80.9
00:37:30,0.0000,0.1494,0.0257,0.0995,100.00,46.49,809,8.09,0.0,0.0,80.9,0.0,80.9
00:38:20,0.0000,0.1511,0.0257,0.1016,100.00,47.45,810,8.1,0.0,0.0,81.0,0.0,81.0
00:39:10,0.0000,0.1318,0.0257,0.1035,100.00,48.34,807,8.07,0.0,0.0,80.7,0.0,80.7
00:40:00,0.0000,0.1439,0.0257,0.1052,100.00,49.16,806,8.06,0.0,0.0,80.6,0.0,80.6
00:40:50,0.0000,0.1340,0.0257,0.1073,100.00,50.11,795,7.95,0.0,0.0,79.5,0.0,79.5
00:41:40,0.0000,0.1418,0.0257,0.1094,100.00,51.10,801,8.01,0.0,0.0,80.1,0.0,80.1
00:42:30,0.0000,0.1192,0.0257,0.1110,100.00,51.84,800,8.0,0.0,0.0,80.0,0.0,80.0
00:43:20,0.0000,0.1235,0.0257,0.1130,100.00,52.80,807,8.07,0.0,0.0,80.7,0.0,80.7
00:44:10,0.0000,0.1799,0.0257,0.1152,100.00,53.83,810,8.1,0.0,0.0,81.0,0.0,81.0
00:45:00,0.0000,0.1198,0.0257,0.1172,100.00,54.75,803,8.03,0.0,0.0,80.3,0.0,80.3
00:45:50,0.0000,0.1360,0.0257,0.1192,100.00,55.69,809,8.09,0.0,0.0,80.9,0.0,80.9
00:46:40,0.0000,0.1183,0.0257,0.1213,100.00,56.67,813,8.13,0.0,0.0,81.3,0.0,81.3
00:47:30,0.0000,0.1328,0.0257,0.1228,100.00,57.38,816,8.16,0.0,0.0,81.6,0.0,81.6
00:48:20,0.0000,0.1303,0.0257,0.1247,100.00,58.25,813,8.13,0.0,0.0,81.3,0.0,81.3
00:49:10,0.0000,0.1323,0.0257,0.1266,100.00,59.12,812,8.12,0.0,0.0,81.2,0.0,81.2
00:50:00,0.0000,0.1337,0.0257,0.1284,100.00,60.00,813,8.13,0.0,0.0,81.3,0.0,81.3
00:50:50,0.0000,0.1351,0.0257,0.1303,100.00,60.87,813,8.13,0.0,0.0,81.3,0.0,81.3
00:51:40,0.0000,0.1408,0.0257,0.1323,100.00,61.81,813,8.13,0.0,0.0,81.3,0.0,81.3
00:52:30,0.0000,0.0932,0.0257,0.1339,100.00,62.55,815,8.15,0.0,0.0,81.5,0.0,81.5
00:53:20,0.0000,0.1311,0.0257,0.1356,100.00,63.36,813,8.13,0.0,0.0,81.3,0.0,81.3
00:54:10,0.0000,0.1327,0.0257,0.1374,100.00,64.20,811,8.11,0.0,0.0,81.1,0.0,81.1
00:55:00,0.0000,0.1327,0.0257,0.1393,100.00,65.08,809,8.09,0.0,0.0,80.9,0.0,80.9
00:55:50,0.0000,0.1396,0.0257,0.1413,100.00,65.99,806,8.06,0.0,0.0,80.6,0.0,80.6
00:56:40,0.0000,0.1359,0.0257,0.1433,100.00,66.97,804,8.04,0.0,0.0,80.4,0.0,80.4
00:57:30,0.0000,0.1362,0.0257,0.1454,100.00,67.92,793,7.93,0.0,0.0,79.3,0.0,79.3
00:58:20,0.0000,0.1428,0.0257,0.1473,100.00,68.83,797,7.97,0.0,0.0,79.7,0.0,79.7
00:59:10,0.0000,0.1217,0.0257,0.1492,100.00,69.70,800,8.0,0.0,0.0,80.0,0.0,80.0
01:00:00,0.0000,0.1400,0.0257,0.1513,100.00,70.69,806,8.06,0.0,0.0,80.6,0.0,80.6
01:00:50,0.0000,0.1361,0.0257,0.1532,100.00,71.58,812,8.12,0.0,0.0,81.2,0.0,81.2
01:01:40,0.0000,0.1376,0.0257,0.1553,100.00,72.56,622,6.22,0.0,0.0,62.2,0.0,62.2
01:02:30,0.0000,0.1714,0.0257,0.1573,100.00,73.49,570,5.7,0.0,0.0,57.0,0.0,57.0
01:03:20,0.0000,0.1209,0.0257,0.1590,100.00,74.30,819,8.19,0.0,0.0,81.9,0.0,81.9
01:04:10,0.0000,0.1304,0.0257,0.1609,100.00,75.17,831,8.31,0.0,0.0,83.1,0.0,83.1
01:05:00,0.0000,0.1400,0.0257,0.1629,100.00,76.09,817,8.17,0.0,0.0,81.7,0.0,81.7
01:05:50,0.0000,0.1475,0.0257,0.1647,100.00,76.96,806,8.06,0.0,0.0,80.6,0.0,80.6
01:06:40,0.0000,0.1286,0.0257,0.1665,100.00,77.79,801,8.01,0.0,0.0,80.1,0.0,80.1
01:07:30,0.0000,0.1331,0.0257,0.1683,100.00,78.60,802,8.02,0.0,0.0,80.2,0.0,80.2
01:08:20,0.0000,0.1826,0.0257,0.1704,100.00,79.61,796,7.96,0.0,0.0,79.6,0.0,79.6
01:09:10,0.0000,0.1625,0.0257,0.1725,100.00,80.58,798,7.98,0.0,0.0,79.8,0.0,79.8
01:10:00,0.0000,0.1373,0.0257,0.1745,100.00,81.51,793,7.93,0.0,0.0,79.3,0.0,79.3
01:10:50,0.0000,0.1692,0.0257,0.1763,100.00,82.38,793,7.93,0.0,0.0,79.3,0.0,79.3
01:11:40,0.0000,0.1064,0.0257,0.1782,100.00,83.25,801,8.01,0.0,0.0,80.1,0.0,80.1
01:12:30,0.0000,0.1308,0.0257,0.1802,100.00,84.19,796,7.96,0.0,0.0,79.6,0.0,79.6
01:13:20,0.0000,0.1099,0.0257,0.1820,100.00,85.03,798,7.98,0.0,0.0,79.8,0.0,79.8
01:14:10,0.0000,0.1401,0.0257,0.1840,100.00,85.95,798,7.98,0.0,0.0,79.8,0.0,79.8
01:15:00,0.0000,0.1277,0.0257,0.1859,100.00,86.83,804,8.04,0.0,0.0,80.4,0.0,80.4
01:15:50,0.0000,0.1302,0.0257,0.1878,100.00,87.72,805,8.05,0.0,0.0,80.5,0.0,80.5
01:16:40,0.0000,0.1579,0.0257,0.1894,100.00,88.50,802,8.02,0.0,0.0,80.2,0.0,80.2
01:17:30,0.0000,0.1402,0.0257,0.1913,100.00,89.35,808,8.08,0.0,0.0,80.8,0.0,80.8
01:18:20,0.0000,0.1813,0.0257,0.1934,100.00,90.34,803,8.03,0.0,0.0,80.3,0.0,80.3
01:19:10,0.0000,0.1374,0.0257,0.1954,100.00,91.27,799,7.99,0.0,0.0,79.9,0.0,79.9
01:20:00,0.0000,0.1667,0.0257,0.1975,100.00,92.27,797,7.97,0.0,0.0,79.7,0.0,79.7
01:20:50,0.0000,0.1292,0.0257,0.1995,100.00,93.20,796,7.96,0.0,0.0,79.6,0.0,79.6
01:21:40,0.0000,0.1231,0.0257,0.2011,100.00,93.94,799,7.99,0.0,0.0,79.9,0.0,79.9
01:22:30,0.0000,0.1366,0.0257,0.2028,100.00,94.76,794,7.94,0.0,0.0,79.4,0.0,79.4
01:23:20,0.0000,0.0903,0.0257,0.2047,100.00,95.63,796,7.96,0.0,0.0,79.6,0.0,79.6
01:24:10,0.0000,0.1173,0.0257,0.2065,100.00,96.47,796,7.96,0.0,0.0,79.6,0.0,79.6
01:25:00,0.0000,0.1775,0.0257,0.2084,100.00,97.37,797,7.97,0.0,0.0,79.7,0.0,79.7
01:25:50,0.0000,0.1075,0.0257,0.2100,100.00,98.12,792,7.92,0.0,0.0,79.2,0.0,79.2
01:26:40,0.0000,0.1194,0.0257,0.2120,100.00,99.02,788,7.88,0.0,0.0,78.8,0.0,78.8
01:27:30,0.0000,0.0878,0.0257,0.2137,100.00,99.83,788,7.88,0.0,0.0,78.8,0.0,78.8
01:27:50,4.5220,1.9928,0.0507,0.2196,197.56,102.59,792,7.92,9.01,0.69,79.2,85.8,-6.6