File: output/4/bigblue-2.csv
Time,Voltage(V),Current(A),Energy(Wh),Capacity(Ah),Energy Proportion(%),Capacity Proportion(%),Irradiance(W/m2),Power(W),Power Score,Sun Score,Irradiance/100,Efficiency(%),Efficiency Score
00:00:00,4.8540,1.9933,0.0269,0.0055,0.24,0.23,819.0,9.68,80.7,81.9,8.19,0.68,1.2
00:00:40,2.7270,1.0206,0.0706,0.0204,0.63,0.86,172.8,2.78,23.2,17.3,1.728,0.92,-5.9
00:01:20,4.9030,1.9921,0.1413,0.0375,1.26,1.58,674.0,9.77,81.4,67.4,6.74,0.83,-14.0
00:02:00,4.0610,1.9883,0.2336,0.0589,2.09,2.48,446.0,8.07,67.3,44.6,4.46,1.03,-22.7
00:02:40,4.9030,1.9900,0.3420,0.0810,3.06,3.42,777.0,9.76,81.3,77.7,7.77,0.72,-3.6
00:03:20,4.9010,1.9909,0.4504,0.1031,4.03,4.35,760.0,9.76,81.3,76.0,7.6,0.73,-5.3
00:04:00,4.9010,1.9910,0.5588,0.1253,4.99,5.28,750.0,9.76,81.3,75.0,7.5,0.74,-6.3
00:04:40,4.9000,1.9912,0.6672,0.1474,5.96,6.21,739.0,9.76,81.3,73.9,7.39,0.75,-7.4
00:05:20,4.9010,1.9908,0.7756,0.1695,6.93,7.14,753.0,9.76,81.3,75.3,7.53,0.74,-6.0
00:06:00,2.7390,1.2020,0.8017,0.1793,7.17,7.56,154.2,3.29,27.4,15.4,1.542,1.22,-12.0
00:06:40,2.6290,0.7966,0.8320,0.1903,7.44,8.02,129.7,2.09,17.4,13.0,1.297,0.92,-4.4
00:07:20,2.6900,1.0722,0.8767,0.2046,7.84,8.63,175.7,2.88,24.0,17.6,1.757,0.94,-6.4
00:08:00,4.9120,1.9894,0.9324,0.2206,8.33,9.30,485.0,9.77,81.4,48.5,4.85,1.15,-32.9
00:08:40,4.9070,1.9905,1.0410,0.2427,9.30,10.23,813.0,9.77,81.4,81.3,8.13,0.69,-0.1
00:09:20,4.9020,1.9904,1.1494,0.2648,10.27,11.16,804.0,9.76,81.3,80.4,8.04,0.69,-0.9
00:10:00,4.8990,1.9904,1.2578,0.2869,11.24,12.10,780.0,9.75,81.3,78.0,7.8,0.71,-3.3
00:10:40,4.8980,1.9906,1.3660,0.3091,12.21,13.03,811.0,9.75,81.3,81.1,8.11,0.69,-0.2
00:11:20,4.8980,1.9907,1.4744,0.3312,13.18,13.96,734.0,9.75,81.3,73.4,7.34,0.76,-7.9
00:12:00,4.9010,1.9903,1.5336,0.3483,13.71,14.68,611.0,9.75,81.3,61.1,6.11,0.91,-20.2
00:12:40,4.8890,1.9904,1.6419,0.3704,14.67,15.62,759.0,9.73,81.1,75.9,7.59,0.73,-5.2
00:13:20,3.7220,1.8672,1.7276,0.3910,15.44,16.48,511.0,6.95,57.9,51.1,5.11,0.78,-6.8
00:14:00,4.7550,1.9902,1.7980,0.4101,16.07,17.28,563.0,9.46,78.8,56.3,5.63,0.96,-22.5
00:14:40,2.6380,0.9275,1.8272,0.4210,16.33,17.75,167.0,2.45,20.4,16.7,1.67,0.84,-3.7
00:15:20,4.9040,1.9895,1.8996,0.4388,16.98,18.49,600.0,9.76,81.3,60.0,6.0,0.93,-21.3
00:16:00,4.8990,1.9903,2.0079,0.4609,17.95,19.43,822.0,9.75,81.3,82.2,8.22,0.68,0.9
00:16:40,4.8960,1.9899,2.1162,0.4830,18.91,20.36,821.0,9.74,81.2,82.1,8.21,0.68,0.9
00:17:20,4.8950,1.9902,2.2245,0.5051,19.88,21.29,803.0,9.74,81.2,80.3,8.03,0.69,-0.9
00:18:00,4.8910,1.9902,2.3327,0.5272,20.85,22.22,782.0,9.73,81.1,78.2,7.82,0.71,-2.9
00:18:40,4.8900,1.9904,2.4408,0.5493,21.81,23.16,766.0,9.73,81.1,76.6,7.66,0.73,-4.5
00:19:20,4.8900,1.9904,2.5490,0.5714,22.78,24.09,760.0,9.73,81.1,76.0,7.6,0.73,-5.1
00:20:00,4.8930,1.9910,2.6572,0.5936,23.75,25.02,757.0,9.74,81.2,75.7,7.57,0.74,-5.5
00:20:40,4.8920,1.9908,2.7654,0.6157,24.72,25.95,761.0,9.74,81.2,76.1,7.61,0.73,-5.1
00:21:20,2.7220,1.1828,2.8555,0.6356,25.52,26.79,758.0,3.22,26.8,75.8,7.58,0.24,49.0
00:22:00,2.5920,0.6221,2.8752,0.6431,25.70,27.11,109.0,1.61,13.4,10.9,1.09,0.84,-2.5
00:22:40,2.6820,0.9744,2.9011,0.6529,25.93,27.52,159.4,2.61,21.8,15.9,1.594,0.94,-5.9
00:23:20,4.9000,1.9914,3.0095,0.6750,26.90,28.45,795.0,9.76,81.3,79.5,7.95,0.7,-1.8
00:24:00,4.8960,1.9915,3.1179,0.6971,27.87,29.38,787.0,9.75,81.3,78.7,7.87,0.71,-2.6
00:24:40,4.8930,1.9910,3.2262,0.7192,28.83,30.32,776.0,9.74,81.2,77.6,7.76,0.72,-3.6
00:25:20,4.8920,1.9905,3.3344,0.7413,29.80,31.25,757.0,9.74,81.2,75.7,7.57,0.74,-5.5
00:26:00,4.8920,1.9909,3.4426,0.7635,30.77,32.18,760.0,9.74,81.2,76.0,7.6,0.73,-5.2
00:26:40,4.8910,1.9911,3.5508,0.7856,31.74,33.11,757.0,9.74,81.2,75.7,7.57,0.74,-5.5
00:27:20,4.8900,1.9906,3.6590,0.8077,32.70,34.05,754.0,9.73,81.1,75.4,7.54,0.74,-5.7
00:28:00,4.8900,1.9905,3.7672,0.8298,33.67,34.98,753.0,9.73,81.1,75.3,7.53,0.74,-5.8
00:28:40,4.8900,1.9908,3.8753,0.8519,34.64,35.91,754.0,9.74,81.2,75.4,7.54,0.74,-5.8
00:29:20,4.8870,1.9914,3.9834,0.8741,35.60,36.84,755.0,9.73,81.1,75.5,7.55,0.74,-5.6
00:30:00,4.8850,1.9911,4.0915,0.8962,36.57,37.78,758.0,9.73,81.1,75.8,7.58,0.73,-5.3
00:30:40,4.8860,1.9905,4.1996,0.9183,37.53,38.71,756.0,9.73,81.1,75.6,7.56,0.74,-5.5
00:31:20,4.8840,1.9902,4.3076,0.9404,38.50,39.64,758.0,9.72,81.0,75.8,7.58,0.73,-5.2
00:32:00,4.8820,1.9905,4.4156,0.9625,39.46,40.57,758.0,9.72,81.0,75.8,7.58,0.73,-5.2
00:32:40,4.8810,1.9902,4.5235,0.9846,40.43,41.50,756.0,9.71,80.9,75.6,7.56,0.73,-5.3
00:33:20,4.8820,1.9901,4.6314,1.0067,41.39,42.44,757.0,9.72,81.0,75.7,7.57,0.73,-5.3
00:34:00,4.8830,1.9912,4.7394,1.0289,42.36,43.37,757.0,9.72,81.0,75.7,7.57,0.73,-5.3
00:34:40,4.8820,1.9902,4.8474,1.0510,43.32,44.30,758.0,9.72,81.0,75.8,7.58,0.73,-5.2
00:35:20,4.8810,1.9900,4.9553,1.0731,44.29,45.23,756.0,9.71,80.9,75.6,7.56,0.73,-5.3
00:36:00,4.8840,1.9899,5.0633,1.0952,45.25,46.17,761.0,9.72,81.0,76.1,7.61,0.73,-4.9
00:36:40,4.8830,1.9906,5.1713,1.1173,46.22,47.10,763.0,9.72,81.0,76.3,7.63,0.73,-4.7
00:37:20,4.8820,1.9905,5.2793,1.1394,47.18,48.03,766.0,9.72,81.0,76.6,7.66,0.73,-4.4
00:38:00,4.8830,1.9905,5.3873,1.1615,48.15,48.96,773.0,9.72,81.0,77.3,7.73,0.72,-3.7
00:38:40,4.8820,1.9902,5.4953,1.1837,49.11,49.89,780.0,9.72,81.0,78.0,7.8,0.71,-3.0
00:39:20,4.8830,1.9904,5.6033,1.2058,50.08,50.83,786.0,9.72,81.0,78.6,7.86,0.71,-2.4
00:40:00,4.8840,1.9903,5.7113,1.2279,51.04,51.76,793.0,9.72,81.0,79.3,7.93,0.7,-1.7
00:40:40,4.8830,1.9916,5.8193,1.2500,52.01,52.69,785.0,9.72,81.0,78.5,7.85,0.71,-2.5
00:41:20,4.8830,1.9902,5.9273,1.2721,52.97,53.62,778.0,9.72,81.0,77.8,7.78,0.71,-3.2
00:42:00,4.8820,1.9907,6.0353,1.2942,53.94,54.56,775.0,9.72,81.0,77.5,7.75,0.72,-3.5
00:42:40,4.8810,1.9906,6.1432,1.3164,54.90,55.49,769.0,9.72,81.0,76.9,7.69,0.72,-4.1
00:43:20,4.8780,1.9899,6.2511,1.3385,55.87,56.42,778.0,9.71,80.9,77.8,7.78,0.71,-3.1
00:44:00,4.8800,1.9895,6.3590,1.3606,56.83,57.35,777.0,9.71,80.9,77.7,7.77,0.71,-3.2
00:44:40,4.8800,1.9900,6.4669,1.3827,57.80,58.28,783.0,9.71,80.9,78.3,7.83,0.71,-2.6
00:45:20,4.8780,1.9903,6.5749,1.4048,58.76,59.22,782.0,9.71,80.9,78.2,7.82,0.71,-2.7
00:46:00,4.8800,1.9902,6.6827,1.4269,59.73,60.15,782.0,9.71,80.9,78.2,7.82,0.71,-2.7
00:46:40,4.8800,1.9900,6.7907,1.4490,60.69,61.08,791.0,9.71,80.9,79.1,7.91,0.7,-1.8
00:47:20,4.8800,1.9905,6.8986,1.4712,61.66,62.01,801.0,9.71,80.9,80.1,8.01,0.69,-0.8
00:48:00,4.8790,1.9901,7.0065,1.4933,62.62,62.94,807.0,9.71,80.9,80.7,8.07,0.69,-0.2
00:48:40,4.8790,1.9899,7.1144,1.5154,63.58,63.88,827.0,9.71,80.9,82.7,8.27,0.67,1.8
00:49:20,2.6380,0.8896,7.2018,1.5344,64.37,64.68,175.0,2.35,19.6,17.5,1.75,0.77,-2.1
00:50:00,2.5750,0.6747,7.2221,1.5423,64.55,65.01,121.5,1.74,14.5,12.2,1.215,0.82,-2.3
00:50:40,4.8840,1.9885,7.2680,1.5551,64.96,65.55,281.0,9.71,80.9,28.1,2.81,1.97,-52.8
00:51:20,4.8850,1.9899,7.3761,1.5772,65.92,66.48,832.0,9.72,81.0,83.2,8.32,0.67,2.2
00:52:00,4.8820,1.9901,7.4840,1.5993,66.89,67.41,819.0,9.72,81.0,81.9,8.19,0.68,0.9
00:52:40,4.8810,1.9903,7.5920,1.6214,67.85,68.35,815.0,9.71,80.9,81.5,8.15,0.68,0.6
00:53:20,4.8800,1.9901,7.6999,1.6435,68.82,69.28,810.0,9.71,80.9,81.0,8.1,0.69,0.1
00:54:00,4.8770,1.9899,7.8077,1.6656,69.78,70.21,813.0,9.7,80.8,81.3,8.13,0.68,0.5
00:54:40,4.8760,1.9893,7.9155,1.6877,70.74,71.14,819.0,9.7,80.8,81.9,8.19,0.68,1.1
00:55:20,4.8770,1.9898,8.0233,1.7098,71.71,72.07,840.0,9.7,80.8,84.0,8.4,0.66,3.2
00:56:00,3.4530,1.8000,8.1215,1.7314,72.58,72.98,349.0,6.22,51.8,34.9,3.49,1.02,-16.9
00:56:40,4.8780,1.9898,8.2133,1.7520,73.41,73.85,823.0,9.71,80.9,82.3,8.23,0.67,1.4
00:57:20,4.8760,1.9896,8.3211,1.7741,74.37,74.78,653.0,9.7,80.8,65.3,6.53,0.85,-15.5
00:58:00,4.8790,1.9907,8.4152,1.7954,75.21,75.68,815.0,9.71,80.9,81.5,8.15,0.68,0.6
00:58:40,4.8790,1.9898,8.5230,1.8175,76.17,76.61,820.0,9.71,80.9,82.0,8.2,0.68,1.1
00:59:20,4.8770,1.9900,8.6309,1.8396,77.14,77.54,825.0,9.71,80.9,82.5,8.25,0.67,1.6
01:00:00,4.8760,1.9904,8.7387,1.8617,78.10,78.48,823.0,9.71,80.9,82.3,8.23,0.67,1.4
01:00:40,4.8750,1.9897,8.8465,1.8838,79.07,79.41,815.0,9.7,80.8,81.5,8.15,0.68,0.7
01:01:20,4.8740,1.9907,8.9543,1.9059,80.03,80.34,817.0,9.7,80.8,81.7,8.17,0.68,0.9
01:02:00,3.4180,1.8336,9.0525,1.9276,80.91,81.25,495.0,6.27,52.3,49.5,4.95,0.72,-2.8
01:02:40,2.7290,1.4017,9.0924,1.9412,81.26,81.83,147.8,3.83,31.9,14.8,1.478,1.48,-17.1
01:03:20,4.8800,1.9901,9.2004,1.9634,82.23,82.76,838.0,9.71,80.9,83.8,8.38,0.66,2.9
01:04:00,4.8790,1.9903,9.3083,1.9855,83.19,83.69,835.0,9.71,80.9,83.5,8.35,0.66,2.6
01:04:40,4.8780,1.9904,9.4161,2.0076,84.16,84.62,830.0,9.71,80.9,83.0,8.3,0.67,2.1
01:05:20,4.8780,1.9901,9.5240,2.0297,85.12,85.56,827.0,9.71,80.9,82.7,8.27,0.67,1.8
01:06:00,4.8790,1.9902,9.6319,2.0518,86.08,86.49,823.0,9.71,80.9,82.3,8.23,0.67,1.4
01:06:40,4.8790,1.9902,9.7398,2.0739,87.05,87.42,819.0,9.71,80.9,81.9,8.19,0.68,1.0
01:07:20,4.8770,1.9904,9.8477,2.0960,88.01,88.35,819.0,9.71,80.9,81.9,8.19,0.68,1.0
01:08:00,4.8790,1.9903,9.9555,2.1181,88.98,89.29,833.0,9.71,80.9,83.3,8.33,0.67,2.4
01:08:40,4.8790,1.9903,10.0567,2.1402,89.88,90.21,817.0,9.71,80.9,81.7,8.17,0.68,0.8
01:09:20,4.8770,1.9899,10.1646,2.1623,90.85,91.15,820.0,9.7,80.8,82.0,8.2,0.68,1.2
01:10:00,4.8770,1.9901,10.2724,2.1844,91.81,92.08,815.0,9.71,80.9,81.5,8.15,0.68,0.6
01:10:40,4.8780,1.9894,10.3802,2.2065,92.77,93.01,828.0,9.7,80.8,82.8,8.28,0.67,2.0
01:11:20,4.8790,1.9899,10.4881,2.2286,93.74,93.94,833.0,9.71,80.9,83.3,8.33,0.67,2.4
01:12:00,4.8770,1.9902,10.5960,2.2507,94.70,94.87,826.0,9.71,80.9,82.6,8.26,0.67,1.7
01:12:40,4.8780,1.9901,10.7039,2.2728,95.66,95.81,813.0,9.71,80.9,81.3,8.13,0.68,0.4
01:13:20,4.8770,1.9903,10.8117,2.2950,96.63,96.74,816.0,9.71,80.9,81.6,8.16,0.68,0.7
01:14:00,4.8750,1.9899,10.9195,2.3171,97.59,97.67,815.0,9.7,80.8,81.5,8.15,0.68,0.7
01:14:40,4.8730,1.9898,11.0273,2.3392,98.56,98.60,820.0,9.7,80.8,82.0,8.2,0.68,1.2
01:15:20,4.8750,1.9895,11.1350,2.3613,99.52,99.53,817.0,9.7,80.8,81.7,8.17,0.68,0.9
01:15:50,4.9010,1.9892,11.2160,2.3779,100.24,100.23,821.0,9.75,81.3,82.1,8.21,0.68,0.8