File: output/4/nekteck-2.csv
Time,Voltage(V),Current(A),Energy(Wh),Capacity(Ah),Energy Proportion(%),Capacity Proportion(%),Irradiance(W/m2),Power(W),Sunlight Level
00:00:00,4.6700,1.9906,0.0258,0.0055,0.14,0.14,858.0,9.3,8.58
00:01:00,4.6580,1.9912,0.1805,0.0387,0.99,0.96,857.0,9.28,8.57
00:02:00,4.6520,1.9898,0.3349,0.0719,1.83,1.78,848.0,9.26,8.48
00:03:00,4.6510,1.9895,0.4891,0.1050,2.67,2.60,843.0,9.25,8.43
00:04:00,4.6490,1.9890,0.6433,0.1382,3.51,3.42,840.0,9.25,8.4
00:05:00,4.6470,1.9898,0.7974,0.1714,4.36,4.24,849.0,9.25,8.49
00:06:00,4.6470,1.9896,0.9515,0.2045,5.20,5.06,855.0,9.25,8.55
00:07:00,2.5720,0.6121,1.0325,0.2267,5.64,5.60,183.0,1.57,1.83
00:08:00,4.6540,1.9894,1.0818,0.2413,5.91,5.96,759.0,9.26,7.59
00:09:00,4.6500,1.9902,1.2360,0.2744,6.75,6.78,867.0,9.25,8.67
00:10:00,4.6450,1.9903,1.3902,0.3076,7.59,7.60,870.0,9.24,8.7
00:11:00,4.6410,1.9896,1.5442,0.3408,8.43,8.42,877.0,9.23,8.77
00:12:00,4.6400,1.9896,1.6981,0.3740,9.28,9.24,895.0,9.23,8.95
00:13:00,4.6350,1.9898,1.8519,0.4071,10.12,10.06,792.0,9.22,7.92
00:14:00,2.6420,0.9530,1.8862,0.4202,10.30,10.39,243.0,2.52,2.43
00:15:00,4.6420,1.9895,2.0317,0.4527,11.10,11.19,884.0,9.24,8.84
00:16:00,4.6410,1.9901,2.1856,0.4859,11.94,12.01,854.0,9.24,8.54
00:17:00,4.6390,1.9904,2.3395,0.5190,12.78,12.83,838.0,9.23,8.38
00:18:00,4.6350,1.9892,2.4933,0.5522,13.62,13.65,826.0,9.22,8.26
00:19:00,4.6350,1.9892,2.6470,0.5853,14.46,14.47,828.0,9.22,8.28
00:20:00,4.6310,1.9890,2.8006,0.6185,15.30,15.29,812.0,9.21,8.12
00:21:00,4.6300,1.9890,2.9541,0.6517,16.14,16.11,806.0,9.21,8.06
00:22:00,4.6320,1.9894,3.1076,0.6848,16.97,16.93,798.0,9.21,7.98
00:23:00,4.6340,1.9896,3.2613,0.7180,17.81,17.74,808.0,9.22,8.08
00:24:00,4.6360,1.9913,3.4150,0.7511,18.65,18.56,813.0,9.23,8.13
00:25:00,4.6350,1.9901,3.5688,0.7843,19.49,19.38,819.0,9.22,8.19
00:26:00,4.6380,1.9902,3.7225,0.8175,20.33,20.20,818.0,9.23,8.18
00:27:00,4.6390,1.9905,3.8764,0.8506,21.17,21.02,833.0,9.23,8.33
00:28:00,4.6390,1.9904,4.0303,0.8838,22.01,21.84,841.0,9.23,8.41
00:29:00,4.6390,1.9903,4.1842,0.9170,22.85,22.66,848.0,9.23,8.48
00:30:00,4.6370,1.9905,4.3381,0.9502,23.69,23.48,847.0,9.23,8.47
00:31:00,4.6380,1.9907,4.4919,0.9833,24.53,24.30,849.0,9.23,8.49
00:32:00,4.6360,1.9904,4.6458,1.0165,25.38,25.12,855.0,9.23,8.55
00:33:00,4.6340,1.9902,4.7995,1.0497,26.21,25.94,855.0,9.22,8.55
00:34:00,4.6320,1.9897,4.9531,1.0829,27.05,26.76,842.0,9.22,8.42
00:35:00,4.6340,1.9899,5.1068,1.1160,27.89,27.58,843.0,9.22,8.43
00:36:00,4.6330,1.9904,5.2604,1.1492,28.73,28.40,829.0,9.22,8.29
00:37:00,4.6300,1.9895,5.4140,1.1824,29.57,29.22,827.0,9.21,8.27
00:38:00,4.6310,1.9893,5.5675,1.2155,30.41,30.04,821.0,9.21,8.21
00:39:00,4.6310,1.9897,5.7211,1.2487,31.25,30.86,825.0,9.21,8.25
00:40:00,4.6290,1.9898,5.8746,1.2818,32.09,31.68,823.0,9.21,8.23
00:41:00,4.6290,1.9896,6.0281,1.3150,32.93,32.50,817.0,9.21,8.17
00:42:00,4.6300,1.9895,6.1816,1.3481,33.76,33.32,809.0,9.21,8.09
00:43:00,4.6280,1.9889,6.3350,1.3813,34.60,34.14,818.0,9.2,8.18
00:44:00,3.4550,1.7905,6.4605,1.4125,35.29,34.91,522.0,6.19,5.22
00:45:00,4.6370,1.9902,6.5903,1.4436,36.00,35.68,844.0,9.23,8.44
00:46:00,4.6360,1.9902,6.7440,1.4767,36.84,36.50,833.0,9.23,8.33
00:47:00,4.6360,1.9909,6.8978,1.5099,37.68,37.32,832.0,9.23,8.32
00:48:00,2.5360,0.4533,6.9930,1.5333,38.20,37.89,130.0,1.15,1.3
00:49:00,2.5180,0.4062,7.0105,1.5402,38.29,38.07,113.5,1.02,1.135
00:50:00,2.7150,1.1583,7.0353,1.5497,38.43,38.30,203.0,3.14,2.03
00:51:00,4.6460,1.9908,7.1896,1.5829,39.27,39.12,833.0,9.25,8.33
00:52:00,4.6450,1.9900,7.3436,1.6161,40.11,39.94,840.0,9.24,8.4
00:53:00,4.6410,1.9907,7.4976,1.6492,40.95,40.76,848.0,9.24,8.48
00:54:00,4.6380,1.9897,7.6515,1.6824,41.79,41.58,841.0,9.23,8.41
00:55:00,4.6390,1.9900,7.8053,1.7156,42.63,42.40,842.0,9.23,8.42
00:56:00,4.6380,1.9899,7.9591,1.7487,43.47,43.22,841.0,9.23,8.41
00:57:00,4.6350,1.9896,8.1128,1.7819,44.31,44.04,848.0,9.22,8.48
00:58:00,2.5580,0.6238,8.1678,1.7986,44.61,44.45,183.5,1.6,1.835
00:59:00,4.6460,1.9919,8.2408,1.8180,45.01,44.93,793.0,9.25,7.93
01:00:00,4.6450,1.9901,8.3949,1.8511,45.85,45.75,847.0,9.24,8.47
01:01:00,4.6440,1.9899,8.5489,1.8843,46.69,46.57,843.0,9.24,8.43
01:02:00,4.6410,1.9897,8.7029,1.9175,47.54,47.39,839.0,9.23,8.39
01:03:00,4.6390,1.9898,8.8568,1.9507,48.38,48.21,842.0,9.23,8.42
01:04:00,4.6360,1.9893,9.0106,1.9838,49.22,49.03,825.0,9.22,8.25
01:05:00,4.6340,1.9897,9.1643,2.0170,50.06,49.85,800.0,9.22,8.0
01:06:00,4.6340,1.9892,9.3180,2.0501,50.89,50.67,789.0,9.22,7.89
01:07:00,4.6390,1.9892,9.4717,2.0833,51.73,51.49,798.0,9.23,7.98
01:08:00,4.6370,1.9894,9.6255,2.1164,52.57,52.31,801.0,9.22,8.01
01:09:00,4.6350,1.9890,9.7792,2.1496,53.41,53.13,812.0,9.22,8.12
01:10:00,4.6330,1.9898,9.9329,2.1828,54.25,53.95,822.0,9.22,8.22
01:11:00,4.6340,1.9894,10.0865,2.2159,55.09,54.77,812.0,9.22,8.12
01:12:00,4.6370,1.9889,10.1814,2.2394,55.61,55.35,783.0,9.22,7.83
01:13:00,4.6340,1.9882,10.3351,2.2725,56.45,56.17,784.0,9.21,7.84
01:14:00,4.6320,1.9890,10.4887,2.3057,57.29,56.99,796.0,9.21,7.96
01:15:00,4.6300,1.9885,10.6422,2.3388,58.13,57.80,798.0,9.21,7.98
01:16:00,2.6040,0.8645,10.7459,2.3660,58.69,58.48,340.0,2.25,3.4
01:17:00,4.6360,1.9888,10.8654,2.3953,59.35,59.20,764.0,9.22,7.64
01:18:00,4.6370,1.9898,11.0099,2.4284,60.14,60.02,765.0,9.23,7.65
01:19:00,4.6400,1.9895,11.0863,2.4490,60.55,60.53,714.0,9.23,7.14
01:20:00,4.6340,1.9899,11.2403,2.4822,61.39,61.35,734.0,9.22,7.34
01:21:00,4.6420,1.9899,11.3943,2.5153,62.24,62.17,788.0,9.24,7.88
01:22:00,4.6410,1.9906,11.5482,2.5485,63.08,62.99,785.0,9.24,7.85
01:23:00,3.1080,1.6673,11.6799,2.5799,63.80,63.76,458.0,5.18,4.58
01:24:00,3.3970,1.7624,11.8035,2.6110,64.47,64.53,558.0,5.99,5.58
01:25:00,4.6400,1.9903,11.9574,2.6442,65.31,65.35,773.0,9.23,7.73
01:26:00,4.6390,1.9898,12.1113,2.6774,66.15,66.17,771.0,9.23,7.71
01:27:00,4.6380,1.9896,12.2651,2.7105,66.99,66.99,786.0,9.23,7.86
01:28:00,4.6370,1.9900,12.4189,2.7437,67.83,67.81,786.0,9.23,7.86
01:29:00,2.5690,0.6698,12.4906,2.7672,68.22,68.39,215.0,1.72,2.15
01:30:00,2.5530,0.6293,12.5174,2.7777,68.37,68.65,184.1,1.61,1.841
01:31:00,3.2110,1.6720,12.6034,2.8008,68.84,69.22,532.0,5.37,5.32
01:32:00,4.6440,1.9895,12.7560,2.8340,69.67,70.04,747.0,9.24,7.47
01:33:00,4.6420,1.9898,12.9100,2.8672,70.51,70.86,762.0,9.24,7.62
01:34:00,4.6410,1.9898,13.0640,2.9003,71.36,71.68,757.0,9.23,7.57
01:35:00,4.6410,1.9901,13.2179,2.9335,72.20,72.50,747.0,9.24,7.47
01:36:00,4.6400,1.9898,13.3718,2.9667,73.04,73.32,748.0,9.23,7.48
01:37:00,4.6390,1.9889,13.5256,2.9998,73.88,74.14,750.0,9.23,7.5
01:38:00,4.6400,1.9895,13.6795,3.0330,74.72,74.96,752.0,9.23,7.52
01:39:00,4.6400,1.9899,13.8334,3.0661,75.56,75.78,739.0,9.23,7.39
01:40:00,4.6410,1.9899,13.9873,3.0993,76.40,76.60,757.0,9.24,7.57
01:41:00,4.6410,1.9899,14.1412,3.1325,77.24,77.42,766.0,9.24,7.66
01:42:00,4.6400,1.9892,14.2951,3.1656,78.08,78.24,766.0,9.23,7.66
01:43:00,4.6410,1.9906,14.4490,3.1988,78.92,79.06,769.0,9.24,7.69
01:44:00,4.6410,1.9898,14.6029,3.2320,79.76,79.88,762.0,9.23,7.62
01:45:00,4.6410,1.9898,14.7569,3.2651,80.60,80.70,762.0,9.23,7.62
01:46:00,4.6390,1.9900,14.9108,3.2983,81.44,81.52,766.0,9.23,7.66
01:47:00,4.6390,1.9897,15.0646,3.3315,82.28,82.34,768.0,9.23,7.68
01:48:00,4.6370,1.9901,15.2185,3.3646,83.12,83.16,768.0,9.23,7.68
01:49:00,4.6370,1.9895,15.3722,3.3978,83.96,83.98,764.0,9.23,7.64
01:50:00,4.6360,1.9903,15.5260,3.4310,84.80,84.80,759.0,9.23,7.59
01:51:00,4.6340,1.9895,15.6797,3.4641,85.64,85.62,765.0,9.22,7.65
01:52:00,4.6340,1.9888,15.8333,3.4973,86.48,86.44,760.0,9.22,7.6
01:53:00,4.6330,1.9896,15.9870,3.5304,87.32,87.25,755.0,9.22,7.55
01:54:00,4.6350,1.9894,16.1406,3.5636,88.16,88.07,758.0,9.22,7.58
01:55:00,4.6380,1.9899,16.2944,3.5967,89.00,88.89,765.0,9.23,7.65
01:56:00,4.6370,1.9901,16.4482,3.6299,89.84,89.71,756.0,9.23,7.56
01:57:00,4.6360,1.9900,16.6020,3.6631,90.68,90.53,746.0,9.23,7.46
01:58:00,4.6360,1.9898,16.7558,3.6962,91.52,91.35,738.0,9.22,7.38
01:59:00,4.6340,1.9896,16.9095,3.7294,92.36,92.17,725.0,9.22,7.25
02:00:00,4.6360,1.9895,17.0632,3.7626,93.20,92.99,722.0,9.22,7.22
02:01:00,4.6380,1.9897,17.2169,3.7957,94.04,93.81,720.0,9.23,7.2
02:02:00,4.6390,1.9896,17.3708,3.8289,94.88,94.63,724.0,9.23,7.24
02:03:00,4.6370,1.9901,17.5246,3.8621,95.72,95.45,724.0,9.23,7.24
02:04:00,4.6360,1.9892,17.6783,3.8952,96.56,96.27,721.0,9.22,7.21
02:05:00,4.6380,1.9899,17.8321,3.9284,97.40,97.09,719.0,9.23,7.19
02:06:00,4.6350,1.9892,17.9858,3.9615,98.24,97.91,705.0,9.22,7.05
02:07:00,4.6360,1.9898,18.1395,3.9947,99.08,98.73,688.0,9.22,6.88
02:08:00,2.6820,1.0519,18.2486,4.0225,99.67,99.42,357.0,2.82,3.57
02:09:00,2.5190,0.4573,18.2690,4.0306,99.79,99.62,130.3,1.15,1.303
02:10:00,2.5350,0.5077,18.2894,4.0387,99.90,99.82,143.2,1.29,1.432
02:11:00,2.5740,0.6678,18.3132,4.0480,100.03,100.05,178.2,1.72,1.782