File: output/5/gznomad14-1.csv
Time,Voltage(V),Current(A),Energy(Wh),Capacity(Ah),Energy Proportion(%),Capacity Proportion(%),Irradiance(W/m2),Power(W),Power Score,Watts/oz,cW/oz,Sun Score,Irradiance/100,Efficiency(%)
00:00:00,5.2230,0.0092,0.0001,0.0000,0.00,0.00,804.0,0.05,0.4,0.0,0.0,80.4,8.04,0.01
00:02:10,5.1070,0.0092,0.0526,0.0108,1.70,0.97,784.0,0.05,0.4,0.0,0.0,78.4,7.84,0.01
00:04:20,4.8700,1.2754,0.1173,0.0240,3.80,2.16,776.0,6.21,51.7,0.22,2.2,77.6,7.76,0.65
00:06:30,5.2090,0.0621,0.2005,0.0480,6.49,4.30,772.0,0.32,2.7,0.01,0.1,77.2,7.72,0.03
00:08:40,5.1030,0.0092,0.2616,0.0611,8.47,5.48,768.0,0.05,0.4,0.0,0.0,76.8,7.68,0.01
00:10:50,4.8810,0.8411,0.3162,0.0724,10.24,6.50,796.0,4.11,34.3,0.14,1.4,79.6,7.96,0.42
00:13:00,2.2850,0.1988,0.3703,0.0887,11.99,7.96,336.0,0.45,3.8,0.02,0.2,33.6,3.36,0.11
00:15:10,4.6030,0.0091,0.4151,0.1059,13.44,9.51,666.0,0.04,0.3,0.0,0.0,66.6,6.66,0.0
00:17:20,2.5540,0.6554,0.4507,0.1199,14.59,10.77,561.0,1.67,13.9,0.06,0.6,56.1,5.61,0.24
00:19:30,2.2520,0.1858,0.4712,0.1284,15.25,11.53,147.1,0.42,3.5,0.01,0.1,14.7,1.471,0.23
00:21:40,2.2610,0.1811,0.4866,0.1352,15.75,12.14,133.8,0.41,3.4,0.01,0.1,13.4,1.338,0.25
00:23:50,2.2870,0.2283,0.5029,0.1424,16.28,12.78,182.7,0.52,4.3,0.02,0.2,18.3,1.827,0.23
00:26:00,2.7150,0.8001,0.5498,0.1601,17.80,14.37,757.0,2.17,18.1,0.08,0.8,75.7,7.57,0.23
00:28:10,4.6790,0.0092,0.6221,0.1817,20.14,16.31,750.0,0.04,0.3,0.0,0.0,75.0,7.5,0.0
00:30:20,3.1250,0.9612,0.7105,0.2066,23.00,18.54,769.0,3.0,25.0,0.1,1.0,76.9,7.69,0.31
00:32:30,2.3010,0.3183,0.7441,0.2180,24.09,19.56,500.0,0.73,6.1,0.03,0.3,50.0,5.0,0.12
00:34:40,2.3170,0.1886,0.7611,0.2249,24.64,20.18,147.2,0.44,3.7,0.02,0.2,14.7,1.472,0.24
00:36:50,2.2670,0.1981,0.7763,0.2315,25.13,20.78,139.5,0.45,3.8,0.02,0.2,14.0,1.395,0.26
00:39:00,2.2740,0.1865,0.7913,0.2381,25.62,21.38,140.8,0.42,3.5,0.01,0.1,14.1,1.408,0.24
00:41:10,2.2810,0.1819,0.8063,0.2447,26.10,21.97,141.5,0.41,3.4,0.01,0.1,14.2,1.415,0.23
00:43:20,2.2940,0.2199,0.8224,0.2517,26.62,22.59,151.0,0.5,4.2,0.02,0.2,15.1,1.51,0.27
00:45:30,2.6690,0.7530,0.8696,0.2708,28.15,24.31,686.0,2.01,16.8,0.07,0.7,68.6,6.86,0.24
00:47:40,4.6030,0.0091,0.9136,0.2844,29.57,25.52,646.0,0.04,0.3,0.0,0.0,64.6,6.46,0.0
00:49:50,4.6750,0.0092,0.9772,0.3065,31.63,27.51,645.0,0.04,0.3,0.0,0.0,64.5,6.45,0.01
00:52:00,4.8030,0.0091,1.0241,0.3174,33.15,28.49,646.0,0.04,0.3,0.0,0.0,64.6,6.46,0.0
00:54:10,3.1680,0.8423,1.1048,0.3387,35.76,30.40,662.0,2.67,22.3,0.09,0.9,66.2,6.62,0.33
00:56:20,5.1510,0.0093,1.1315,0.3457,36.63,31.03,641.0,0.05,0.4,0.0,0.0,64.1,6.41,0.01
00:58:30,2.4160,0.5570,1.1826,0.3659,38.28,32.84,626.0,1.35,11.3,0.05,0.5,62.6,6.26,0.17
01:00:40,2.4980,0.5954,1.2288,0.3831,39.78,34.38,545.0,1.49,12.4,0.05,0.5,54.5,5.45,0.22
01:02:50,2.8430,0.7536,1.2648,0.3956,40.94,35.51,607.0,2.14,17.8,0.07,0.7,60.7,6.07,0.28
01:05:00,2.7220,0.7666,1.3386,0.4204,43.33,37.74,536.0,2.09,17.4,0.07,0.7,53.6,5.36,0.31
01:07:10,2.9350,0.6594,1.3957,0.4407,45.18,39.55,497.0,1.94,16.2,0.07,0.7,49.7,4.97,0.31
01:09:20,3.8010,0.4444,1.4330,0.4541,46.39,40.76,258.0,1.69,14.1,0.06,0.6,25.8,2.58,0.53
01:11:30,3.3910,0.9264,1.4824,0.4710,47.99,42.27,591.0,3.14,26.2,0.11,1.1,59.1,5.91,0.43
01:13:40,4.7790,0.0091,1.5374,0.4872,49.77,43.73,643.0,0.04,0.3,0.0,0.0,64.3,6.43,0.01
01:15:50,3.7150,1.0061,1.5893,0.5053,51.45,45.35,598.0,3.74,31.2,0.13,1.3,59.8,5.98,0.5
01:18:00,2.6710,0.6755,1.6447,0.5230,53.24,46.94,604.0,1.8,15.0,0.06,0.6,60.4,6.04,0.24
01:20:10,5.1160,0.0092,1.7060,0.5414,55.23,48.60,626.0,0.05,0.4,0.0,0.0,62.6,6.26,0.01
01:22:20,4.1520,0.9366,1.7638,0.5565,57.10,49.95,614.0,3.89,32.4,0.14,1.4,61.4,6.14,0.51
01:24:30,5.2200,0.0498,1.8063,0.5709,58.47,51.25,501.0,0.26,2.2,0.01,0.1,50.1,5.01,0.04
01:26:40,2.2930,0.3528,1.8478,0.5873,59.82,52.72,439.0,0.81,6.8,0.03,0.3,43.9,4.39,0.15
01:28:50,2.3060,0.3748,1.8770,0.6001,60.76,53.87,446.0,0.86,7.2,0.03,0.3,44.6,4.46,0.16
01:31:00,2.5660,0.5226,1.9116,0.6136,61.88,55.07,485.0,1.34,11.2,0.05,0.5,48.5,4.85,0.22
01:33:10,2.3140,0.3785,1.9593,0.6318,63.43,56.71,445.0,0.88,7.3,0.03,0.3,44.5,4.45,0.16
01:35:20,2.3060,0.3552,1.9898,0.6451,64.42,57.90,438.0,0.82,6.8,0.03,0.3,43.8,4.38,0.15
01:37:30,2.5540,0.4729,2.0310,0.6613,65.75,59.36,426.0,1.21,10.1,0.04,0.4,42.6,4.26,0.23
01:39:40,2.2770,0.3030,2.0631,0.6749,66.79,60.58,388.0,0.69,5.8,0.02,0.2,38.8,3.88,0.14
01:41:50,2.3140,0.3291,2.0891,0.6863,67.63,61.60,384.0,0.76,6.3,0.03,0.3,38.4,3.84,0.16
01:44:00,2.3040,0.2864,2.1142,0.6973,68.44,62.59,353.0,0.66,5.5,0.02,0.2,35.3,3.53,0.15
01:46:10,2.3140,0.2532,2.1379,0.7075,69.21,63.51,306.0,0.59,4.9,0.02,0.2,30.6,3.06,0.16
01:48:20,2.3580,0.2129,2.1594,0.7163,69.90,64.30,198.0,0.5,4.2,0.02,0.2,19.8,1.98,0.2
01:50:30,2.3100,0.1785,2.1754,0.7233,70.42,64.92,155.7,0.41,3.4,0.01,0.1,15.6,1.557,0.21
01:52:40,2.3200,0.2037,2.1907,0.7299,70.92,65.51,177.4,0.47,3.9,0.02,0.2,17.7,1.774,0.21
01:54:50,2.3200,0.2006,2.2087,0.7376,71.50,66.21,194.5,0.47,3.9,0.02,0.2,19.5,1.945,0.19
01:57:00,2.3280,0.2276,2.2262,0.7452,72.07,66.88,203.0,0.53,4.4,0.02,0.2,20.3,2.03,0.21
01:59:10,2.3250,0.2056,2.2433,0.7525,72.62,67.54,185.0,0.48,4.0,0.02,0.2,18.5,1.85,0.21
02:01:20,2.3330,0.1846,2.2599,0.7597,73.16,68.19,174.0,0.43,3.6,0.01,0.1,17.4,1.74,0.2
02:03:30,2.3270,0.1858,2.2750,0.7662,73.65,68.77,135.6,0.43,3.6,0.01,0.1,13.6,1.356,0.26
02:05:40,2.3260,0.1694,2.2888,0.7721,74.09,69.30,125.1,0.39,3.3,0.01,0.1,12.5,1.251,0.25
02:07:50,2.3180,0.1774,2.3023,0.7779,74.53,69.83,120.8,0.41,3.4,0.01,0.1,12.1,1.208,0.27
02:10:00,2.3140,0.1575,2.3158,0.7837,74.97,70.35,121.2,0.36,3.0,0.01,0.1,12.1,1.212,0.24
02:12:10,2.3180,0.1743,2.3295,0.7897,75.41,70.88,120.1,0.4,3.3,0.01,0.1,12.0,1.201,0.27
02:14:20,2.3240,0.1733,2.3432,0.7955,75.85,71.41,123.9,0.4,3.3,0.01,0.1,12.4,1.239,0.26
02:16:30,2.3200,0.1600,2.3568,0.8014,76.29,71.93,128.7,0.37,3.1,0.01,0.1,12.9,1.287,0.23
02:18:40,2.3210,0.1671,2.3710,0.8075,76.75,72.48,138.3,0.39,3.3,0.01,0.1,13.8,1.383,0.23
02:20:50,2.3310,0.1741,2.3855,0.8138,77.22,73.04,139.5,0.41,3.4,0.01,0.1,14.0,1.395,0.24
02:23:00,2.3370,0.1802,2.4001,0.8200,77.70,73.61,139.1,0.42,3.5,0.01,0.1,13.9,1.391,0.24
02:25:10,2.3250,0.1765,2.4149,0.8264,78.17,74.17,148.1,0.41,3.4,0.01,0.1,14.8,1.481,0.22
02:27:20,2.3280,0.1929,2.4299,0.8329,78.66,74.75,145.0,0.45,3.8,0.02,0.2,14.5,1.45,0.25
02:29:30,2.3360,0.1694,2.4441,0.8390,79.12,75.30,141.9,0.4,3.3,0.01,0.1,14.2,1.419,0.23
02:31:40,2.3220,0.1631,2.4584,0.8451,79.58,75.85,132.8,0.38,3.2,0.01,0.1,13.3,1.328,0.23
02:33:50,2.3240,0.1672,2.4723,0.8511,80.04,76.39,125.5,0.39,3.3,0.01,0.1,12.6,1.255,0.25
02:36:00,2.3230,0.1773,2.4860,0.8570,80.48,76.92,121.9,0.41,3.4,0.01,0.1,12.2,1.219,0.27
02:38:10,2.3210,0.1715,2.4994,0.8628,80.91,77.44,117.8,0.4,3.3,0.01,0.1,11.8,1.178,0.27
02:40:20,2.3180,0.1527,2.5126,0.8684,81.34,77.95,115.8,0.35,2.9,0.01,0.1,11.6,1.158,0.24
02:42:30,2.3250,0.1523,2.5260,0.8742,81.77,78.47,111.9,0.35,2.9,0.01,0.1,11.2,1.119,0.25
02:44:40,2.3260,0.1538,2.5390,0.8798,82.19,78.97,110.4,0.36,3.0,0.01,0.1,11.0,1.104,0.26
02:46:50,2.3190,0.1497,2.5517,0.8853,82.61,79.46,106.6,0.35,2.9,0.01,0.1,10.7,1.066,0.26
02:49:00,2.3310,0.1495,2.5650,0.8910,83.04,79.97,108.6,0.35,2.9,0.01,0.1,10.9,1.086,0.26
02:51:10,2.3260,0.1481,2.5778,0.8965,83.45,80.47,109.0,0.34,2.8,0.01,0.1,10.9,1.09,0.25
02:53:20,2.3240,0.1682,2.5910,0.9022,83.88,80.98,107.8,0.39,3.3,0.01,0.1,10.8,1.078,0.29
02:55:30,2.3210,0.1521,2.6038,0.9077,84.29,81.47,109.6,0.35,2.9,0.01,0.1,11.0,1.096,0.26
02:57:40,2.3200,0.1507,2.6167,0.9132,84.71,81.97,109.3,0.35,2.9,0.01,0.1,10.9,1.093,0.26
02:59:50,2.3320,0.1534,2.6295,0.9187,85.12,82.46,109.9,0.36,3.0,0.01,0.1,11.0,1.099,0.26
03:02:00,2.3260,0.1609,2.6424,0.9243,85.54,82.96,111.5,0.37,3.1,0.01,0.1,11.2,1.115,0.27
03:04:10,2.3270,0.1731,2.6556,0.9299,85.97,83.47,114.4,0.4,3.3,0.01,0.1,11.4,1.144,0.28
03:06:20,2.3320,0.1717,2.6689,0.9357,86.40,83.99,118.5,0.4,3.3,0.01,0.1,11.9,1.185,0.27
03:08:30,2.3190,0.1593,2.6827,0.9416,86.85,84.52,122.7,0.37,3.1,0.01,0.1,12.3,1.227,0.24
03:10:40,2.3230,0.1739,2.6969,0.9477,87.31,85.07,141.4,0.4,3.3,0.01,0.1,14.1,1.414,0.23
03:12:50,2.3360,0.1977,2.7124,0.9544,87.81,85.66,175.1,0.46,3.8,0.02,0.2,17.5,1.751,0.21
03:15:00,2.3560,0.2802,2.7324,0.9629,88.46,86.43,274.0,0.66,5.5,0.02,0.2,27.4,2.74,0.19
03:17:10,2.3460,0.2782,2.7551,0.9726,89.19,87.29,280.0,0.65,5.4,0.02,0.2,28.0,2.8,0.19
03:19:20,2.3360,0.2436,2.7758,0.9814,89.86,88.09,257.0,0.57,4.7,0.02,0.2,25.7,2.57,0.18
03:21:30,2.3270,0.2339,2.8011,0.9916,90.68,89.00,264.0,0.54,4.5,0.02,0.2,26.4,2.64,0.16
03:23:40,2.7550,0.3594,2.8259,1.0014,91.48,89.88,264.0,0.99,8.3,0.03,0.3,26.4,2.64,0.3
03:25:50,2.3350,0.2608,2.8479,1.0107,92.19,90.72,248.0,0.61,5.1,0.02,0.2,24.8,2.48,0.2
03:28:00,2.3370,0.2396,2.8675,1.0191,92.83,91.47,237.0,0.56,4.7,0.02,0.2,23.7,2.37,0.19
03:30:10,2.3530,0.2351,2.8872,1.0275,93.47,92.23,230.0,0.55,4.6,0.02,0.2,23.0,2.3,0.19
03:32:20,2.3390,0.2385,2.9063,1.0357,94.09,92.96,222.0,0.56,4.7,0.02,0.2,22.2,2.22,0.2
03:34:30,2.3370,0.2147,2.9251,1.0437,94.69,93.68,215.0,0.5,4.2,0.02,0.2,21.5,2.15,0.19
03:36:40,2.3280,0.2065,2.9429,1.0514,95.27,94.37,205.0,0.48,4.0,0.02,0.2,20.5,2.05,0.19
03:38:50,2.3450,0.2055,2.9604,1.0589,95.84,95.04,197.0,0.48,4.0,0.02,0.2,19.7,1.97,0.2
03:41:00,2.3270,0.2039,2.9781,1.0664,96.41,95.72,191.0,0.47,3.9,0.02,0.2,19.1,1.91,0.2
03:43:10,2.3260,0.1895,2.9946,1.0735,96.94,96.35,171.2,0.44,3.7,0.02,0.2,17.1,1.712,0.21
03:45:20,2.3360,0.1619,3.0100,1.0802,97.44,96.95,135.5,0.38,3.2,0.01,0.1,13.6,1.355,0.23
03:47:30,2.3220,0.1509,3.0232,1.0858,97.87,97.46,107.9,0.35,2.9,0.01,0.1,10.8,1.079,0.26
03:49:40,2.3250,0.1531,3.0361,1.0914,98.29,97.96,109.9,0.36,3.0,0.01,0.1,11.0,1.099,0.26
03:51:50,2.3220,0.1395,3.0481,1.0966,98.68,98.42,102.7,0.32,2.7,0.01,0.1,10.3,1.027,0.25
03:54:00,2.3320,0.1281,3.0595,1.1014,99.04,98.86,84.4,0.3,2.5,0.01,0.1,8.4,0.844,0.29
03:56:10,2.3250,0.1266,3.0703,1.1061,99.39,99.28,73.7,0.29,2.4,0.01,0.1,7.4,0.737,0.32
03:58:20,2.3400,0.1286,3.0809,1.1106,99.74,99.69,73.3,0.3,2.5,0.01,0.1,7.3,0.733,0.33
04:00:10,2.3270,0.1207,3.0898,1.1145,100.03,100.03,70.1,0.28,2.3,0.01,0.1,7.0,0.701,0.32