File: output/5/gznomad14-2.csv
Time,Voltage(V),Current(A),Energy(Wh),Capacity(Ah),Energy Proportion(%),Capacity Proportion(%),Irradiance(W/m2),Power(W),Power Score,Watts/oz,cW/oz,Sun Score,Irradiance/100,Efficiency(%)
00:00:00,4.6030,0.0090,0.0001,0.0000,0.00,0.00,409.0,0.04,0.3,0.0,0.0,40.9,4.09,0.01
00:01:50,5.2130,0.0091,0.0168,0.0041,0.34,0.29,623.0,0.05,0.4,0.0,0.0,62.3,6.23,0.01
00:03:40,3.5410,0.2132,0.0378,0.0087,0.77,0.61,126.2,0.75,6.3,0.03,0.3,12.6,1.262,0.48
00:05:30,5.2210,0.0091,0.0496,0.0119,1.02,0.83,150.7,0.05,0.4,0.0,0.0,15.1,1.507,0.03
00:07:20,3.8740,0.2201,0.0678,0.0167,1.39,1.16,184.0,0.85,7.1,0.03,0.3,18.4,1.84,0.37
00:09:10,4.6780,0.0090,0.0928,0.0226,1.90,1.57,166.0,0.04,0.3,0.0,0.0,16.6,1.66,0.02
00:11:00,4.5290,0.5407,0.1119,0.0272,2.29,1.89,494.0,2.45,20.4,0.09,0.9,49.4,4.94,0.4
00:12:50,5.2060,0.0092,0.1528,0.0357,3.13,2.48,675.0,0.05,0.4,0.0,0.0,67.5,6.75,0.01
00:14:40,4.8410,0.3155,0.1972,0.0451,4.04,3.13,650.0,1.53,12.8,0.05,0.5,65.0,6.5,0.19
00:16:30,4.8190,0.3813,0.2141,0.0485,4.39,3.37,636.0,1.84,15.3,0.06,0.6,63.6,6.36,0.23
00:18:20,5.1440,0.0091,0.2332,0.0525,4.78,3.65,637.0,0.05,0.4,0.0,0.0,63.7,6.37,0.01
00:20:10,3.1770,0.7951,0.2834,0.0677,5.81,4.70,631.0,2.53,21.1,0.09,0.9,63.1,6.31,0.32
00:22:00,2.3190,0.1726,0.3278,0.0810,6.72,5.62,114.6,0.4,3.3,0.01,0.1,11.5,1.146,0.28
00:23:50,2.3350,0.1679,0.3398,0.0862,6.96,5.98,113.3,0.39,3.3,0.01,0.1,11.3,1.133,0.28
00:25:40,2.4690,0.5117,0.3610,0.0949,7.40,6.59,703.0,1.26,10.5,0.04,0.4,70.3,7.03,0.14
00:27:30,2.4370,0.4918,0.3990,0.1105,8.18,7.67,704.0,1.2,10.0,0.04,0.4,70.4,7.04,0.14
00:29:20,2.3520,0.2226,0.4188,0.1188,8.58,8.25,165.2,0.52,4.3,0.02,0.2,16.5,1.652,0.25
00:31:10,2.4920,0.5982,0.4517,0.1323,9.26,9.18,739.0,1.49,12.4,0.05,0.5,73.9,7.39,0.16
00:33:00,4.6640,1.0144,0.4858,0.1394,9.96,9.68,724.0,4.73,39.4,0.16,1.6,72.4,7.24,0.53
00:34:50,4.9210,0.0091,0.5067,0.1437,10.38,9.98,727.0,0.04,0.3,0.0,0.0,72.7,7.27,0.0
00:36:40,4.8160,0.8210,0.5699,0.1626,11.68,11.29,692.0,3.95,32.9,0.14,1.4,69.2,6.92,0.46
00:38:30,2.4470,0.5102,0.6111,0.1790,12.52,12.43,692.0,1.25,10.4,0.04,0.4,69.2,6.92,0.15
00:40:20,2.6190,0.6678,0.6499,0.1932,13.32,13.42,699.0,1.75,14.6,0.06,0.6,69.9,6.99,0.2
00:42:10,2.5630,0.6291,0.7056,0.2115,14.46,14.69,714.0,1.61,13.4,0.06,0.6,71.4,7.14,0.18
00:44:00,2.4460,0.5120,0.7483,0.2287,15.34,15.88,701.0,1.25,10.4,0.04,0.4,70.1,7.01,0.14
00:45:50,2.3580,0.2966,0.7871,0.2432,16.13,16.89,224.0,0.7,5.8,0.02,0.2,22.4,2.24,0.25
00:47:40,5.1090,0.0091,0.8099,0.2503,16.60,17.38,710.0,0.05,0.4,0.0,0.0,71.0,7.1,0.01
00:49:30,2.5120,0.6028,0.8545,0.2645,17.51,18.37,712.0,1.51,12.6,0.05,0.5,71.2,7.12,0.17
00:51:20,2.4540,0.5595,0.8958,0.2813,18.36,19.54,711.0,1.37,11.4,0.05,0.5,71.1,7.11,0.16
00:53:10,3.3140,0.9137,0.9346,0.2951,19.15,20.50,720.0,3.03,25.3,0.11,1.1,72.0,7.2,0.34
00:55:00,2.4940,0.5878,0.9944,0.3168,20.38,22.00,719.0,1.47,12.3,0.05,0.5,71.9,7.19,0.16
00:56:50,5.2150,0.0092,1.0344,0.3302,21.20,22.93,700.0,0.05,0.4,0.0,0.0,70.0,7.0,0.01
00:58:40,2.6840,0.6877,1.0672,0.3395,21.87,23.58,724.0,1.85,15.4,0.06,0.6,72.4,7.24,0.21
01:00:30,2.5120,0.6242,1.1142,0.3582,22.83,24.88,733.0,1.57,13.1,0.05,0.5,73.3,7.33,0.17
01:02:20,5.0990,0.0092,1.1633,0.3725,23.84,25.87,739.0,0.05,0.4,0.0,0.0,73.9,7.39,0.01
01:04:10,4.9980,0.1308,1.2003,0.3825,24.60,26.57,727.0,0.65,5.4,0.02,0.2,72.7,7.27,0.07
01:06:00,2.5170,0.6076,1.2559,0.4015,25.74,27.88,740.0,1.53,12.8,0.05,0.5,74.0,7.4,0.17
01:07:50,2.7000,0.7266,1.3036,0.4204,26.72,29.20,729.0,1.96,16.3,0.07,0.7,72.9,7.29,0.22
01:09:40,3.1820,0.8914,1.3794,0.4433,28.27,30.79,741.0,2.84,23.7,0.1,1.0,74.1,7.41,0.31
01:11:30,5.0920,0.4212,1.4598,0.4658,29.92,32.35,743.0,2.14,17.8,0.07,0.7,74.3,7.43,0.23
01:13:20,4.7910,0.5418,1.5091,0.4776,30.93,33.17,740.0,2.6,21.7,0.09,0.9,74.0,7.4,0.28
01:15:10,4.9250,0.0091,1.5592,0.4883,31.95,33.91,758.0,0.04,0.3,0.0,0.0,75.8,7.58,0.0
01:17:00,2.5070,0.6322,1.6109,0.5077,33.01,35.26,756.0,1.58,13.2,0.05,0.5,75.6,7.56,0.17
01:18:50,3.3780,0.9928,1.6624,0.5260,34.07,36.53,768.0,3.35,27.9,0.12,1.2,76.8,7.68,0.35
01:20:40,5.0380,0.0350,1.6897,0.5325,34.63,36.99,772.0,0.18,1.5,0.01,0.1,77.2,7.72,0.02
01:22:30,5.0870,0.0091,1.7620,0.5486,36.11,38.10,803.0,0.05,0.4,0.0,0.0,80.3,8.03,0.01
01:24:20,4.8290,0.7250,1.8219,0.5628,37.34,39.08,775.0,3.5,29.2,0.12,1.2,77.5,7.75,0.36
01:26:10,4.6200,1.3218,1.8519,0.5690,37.95,39.52,776.0,6.11,50.9,0.21,2.1,77.6,7.76,0.63
01:28:00,5.2130,0.0092,1.8742,0.5736,38.41,39.84,791.0,0.05,0.4,0.0,0.0,79.1,7.91,0.01
01:29:50,2.5500,0.6698,1.9249,0.5922,39.45,41.13,799.0,1.71,14.2,0.06,0.6,79.9,7.99,0.17
01:31:40,2.7950,0.8043,2.0063,0.6179,41.12,42.92,793.0,2.25,18.8,0.08,0.8,79.3,7.93,0.23
01:33:30,5.0720,0.0223,2.0974,0.6443,42.98,44.75,799.0,0.11,0.9,0.0,0.0,79.9,7.99,0.01
01:35:20,5.1090,0.0092,2.1602,0.6604,44.27,45.87,802.0,0.05,0.4,0.0,0.0,80.2,8.02,0.01
01:37:10,5.1800,0.1480,2.1755,0.6634,44.58,46.08,804.0,0.77,6.4,0.03,0.3,80.4,8.04,0.08
01:39:00,2.8860,0.8678,2.2116,0.6730,45.32,46.74,827.0,2.5,20.8,0.09,0.9,82.7,8.27,0.24
01:40:50,4.6410,1.1768,2.2850,0.6942,46.83,48.21,832.0,5.46,45.5,0.19,1.9,83.2,8.32,0.53
01:42:40,5.1160,0.0091,2.3201,0.7020,47.55,48.75,835.0,0.05,0.4,0.0,0.0,83.5,8.35,0.0
01:44:30,4.9230,0.0091,2.3616,0.7105,48.40,49.35,805.0,0.04,0.3,0.0,0.0,80.5,8.05,0.0
01:46:20,2.5820,0.5925,2.4201,0.7258,49.60,50.40,682.0,1.53,12.8,0.05,0.5,68.2,6.82,0.18
01:48:10,2.4590,0.5632,2.4643,0.7435,50.50,51.64,767.0,1.38,11.5,0.05,0.5,76.7,7.67,0.15
01:50:00,4.8160,1.0952,2.5258,0.7638,51.76,53.05,796.0,5.27,43.9,0.18,1.8,79.6,7.96,0.53
01:51:50,5.0020,0.4619,2.5972,0.7818,53.23,54.30,806.0,2.31,19.3,0.08,0.8,80.6,8.06,0.23
01:53:40,2.3120,0.2128,2.6521,0.7974,54.35,55.38,232.0,0.49,4.1,0.02,0.2,23.2,2.32,0.17
01:55:30,2.3280,0.2159,2.6670,0.8038,54.66,55.82,233.0,0.5,4.2,0.02,0.2,23.3,2.33,0.17
01:57:20,2.4510,0.5577,2.6992,0.8172,55.32,56.75,760.0,1.37,11.4,0.05,0.5,76.0,7.6,0.15
01:59:10,2.8290,0.8178,2.7440,0.8349,56.23,57.98,767.0,2.31,19.3,0.08,0.8,76.7,7.67,0.24
02:01:00,4.4740,0.5322,2.7918,0.8492,57.21,58.97,661.0,2.38,19.8,0.08,0.8,66.1,6.61,0.29
02:02:50,2.3940,0.5178,2.8371,0.8667,58.14,60.19,665.0,1.24,10.3,0.04,0.4,66.5,6.65,0.15
02:04:40,2.3850,0.4476,2.8723,0.8813,58.86,61.21,662.0,1.07,8.9,0.04,0.4,66.2,6.62,0.13
02:06:30,4.6740,0.0135,2.9098,0.8960,59.63,62.23,658.0,0.06,0.5,0.0,0.0,65.8,6.58,0.01
02:08:20,2.4290,0.5249,2.9579,0.9146,60.62,63.52,705.0,1.27,10.6,0.04,0.4,70.5,7.05,0.15
02:10:10,2.3320,0.3337,2.9780,0.9232,61.03,64.12,403.0,0.78,6.5,0.03,0.3,40.3,4.03,0.16
02:12:00,2.3150,0.2265,2.9931,0.9298,61.34,64.57,228.0,0.52,4.3,0.02,0.2,22.8,2.28,0.18
02:13:50,2.4150,0.4675,3.0199,0.9410,61.89,65.35,693.0,1.13,9.4,0.04,0.4,69.3,6.93,0.13
02:15:40,5.2060,0.0091,3.0534,0.9543,62.58,66.28,663.0,0.05,0.4,0.0,0.0,66.3,6.63,0.01
02:17:30,2.4700,0.5629,3.1044,0.9728,63.62,67.56,698.0,1.39,11.6,0.05,0.5,69.8,6.98,0.16
02:19:20,2.4650,0.5751,3.1423,0.9884,64.40,68.64,703.0,1.42,11.8,0.05,0.5,70.3,7.03,0.16
02:21:10,5.2210,0.0091,3.2012,1.0046,65.61,69.77,792.0,0.05,0.4,0.0,0.0,79.2,7.92,0.01
02:23:00,4.9640,0.0092,3.2549,1.0157,66.70,70.54,828.0,0.05,0.4,0.0,0.0,82.8,8.28,0.0
02:24:50,5.2220,0.0092,3.2833,1.0215,67.29,70.94,840.0,0.05,0.4,0.0,0.0,84.0,8.4,0.0
02:26:40,2.6510,0.7784,3.3192,1.0350,68.02,71.88,890.0,2.06,17.2,0.07,0.7,89.0,8.9,0.19
02:28:30,5.0000,0.6128,3.4052,1.0570,69.79,73.41,867.0,3.06,25.5,0.11,1.1,86.7,8.67,0.28
02:30:20,4.9210,0.0091,3.4379,1.0646,70.46,73.94,854.0,0.04,0.3,0.0,0.0,85.4,8.54,0.0
02:32:10,5.0260,0.4736,3.5044,1.0801,71.82,75.01,839.0,2.38,19.8,0.08,0.8,83.9,8.39,0.23
02:34:00,5.0840,0.0092,3.5213,1.0835,72.16,75.25,823.0,0.05,0.4,0.0,0.0,82.3,8.23,0.0
02:35:50,5.1190,0.0092,3.5474,1.0888,72.70,75.62,815.0,0.05,0.4,0.0,0.0,81.5,8.15,0.0
02:37:40,3.4840,1.0593,3.5835,1.0987,73.44,76.31,822.0,3.69,30.8,0.13,1.3,82.2,8.22,0.36
02:39:30,4.9440,0.0091,3.6327,1.1087,74.45,77.00,830.0,0.04,0.3,0.0,0.0,83.0,8.3,0.0
02:41:20,5.1000,0.0092,3.6877,1.1202,75.57,77.80,842.0,0.05,0.4,0.0,0.0,84.2,8.42,0.0
02:43:10,5.0940,0.0091,3.7337,1.1299,76.52,78.47,841.0,0.05,0.4,0.0,0.0,84.1,8.41,0.0
02:45:00,5.1020,0.0091,3.7552,1.1350,76.96,78.83,837.0,0.05,0.4,0.0,0.0,83.7,8.37,0.0
02:46:50,5.1450,0.0091,3.7925,1.1426,77.72,79.35,829.0,0.05,0.4,0.0,0.0,82.9,8.29,0.0
02:48:40,4.8170,0.8764,3.8459,1.1560,78.82,80.28,826.0,4.22,35.2,0.15,1.5,82.6,8.26,0.41
02:50:30,5.0730,0.0092,3.9209,1.1738,80.36,81.52,829.0,0.05,0.4,0.0,0.0,82.9,8.29,0.0
02:52:20,5.1750,0.0091,3.9958,1.1912,81.89,82.73,819.0,0.05,0.4,0.0,0.0,81.9,8.19,0.0
02:54:10,3.6350,1.1268,4.0639,1.2078,83.29,83.88,817.0,4.1,34.2,0.14,1.4,81.7,8.17,0.4
02:56:00,4.9130,0.7964,4.1146,1.2217,84.32,84.85,809.0,3.91,32.6,0.14,1.4,80.9,8.09,0.39
02:57:50,3.3950,1.1070,4.1702,1.2351,85.46,85.78,818.0,3.76,31.3,0.13,1.3,81.8,8.18,0.37
02:59:40,5.1230,0.0091,4.2324,1.2547,86.74,87.14,814.0,0.05,0.4,0.0,0.0,81.4,8.14,0.0
03:01:30,2.9330,0.9180,4.3202,1.2775,88.54,88.72,815.0,2.69,22.4,0.09,0.9,81.5,8.15,0.27
03:03:20,3.4460,1.0651,4.4040,1.3011,90.26,90.36,829.0,3.67,30.6,0.13,1.3,82.9,8.29,0.36
03:05:10,5.0200,0.0092,4.4804,1.3198,91.82,91.66,845.0,0.05,0.4,0.0,0.0,84.5,8.45,0.0
03:07:00,4.9250,0.0091,4.4986,1.3244,92.19,91.98,835.0,0.04,0.3,0.0,0.0,83.5,8.35,0.0
03:08:50,4.6330,1.2470,4.5688,1.3435,93.63,93.31,846.0,5.78,48.2,0.2,2.0,84.6,8.46,0.55
03:10:40,2.2960,0.1795,4.5881,1.3501,94.03,93.77,159.5,0.41,3.4,0.01,0.1,16.0,1.595,0.21
03:12:30,2.3570,0.3589,4.6035,1.3568,94.34,94.23,434.0,0.85,7.1,0.03,0.3,43.4,4.34,0.16
03:14:20,2.5050,0.6741,4.6495,1.3752,95.29,95.51,860.0,1.69,14.1,0.06,0.6,86.0,8.6,0.16
03:16:10,4.9210,0.0092,4.7107,1.3924,96.54,96.70,853.0,0.05,0.4,0.0,0.0,85.3,8.53,0.0
03:18:00,4.9950,0.7709,4.7497,1.4005,97.34,97.26,849.0,3.85,32.1,0.13,1.3,84.9,8.49,0.37
03:19:50,5.2220,0.0092,4.7749,1.4056,97.86,97.62,813.0,0.05,0.4,0.0,0.0,81.3,8.13,0.0
03:21:40,2.7010,0.7559,4.8166,1.4178,98.71,98.47,813.0,2.04,17.0,0.07,0.7,81.3,8.13,0.2
03:23:30,2.9140,0.8675,4.8637,1.4359,99.68,99.72,829.0,2.53,21.1,0.09,0.9,82.9,8.29,0.25
03:24:00,2.3250,0.2820,4.8813,1.4407,100.04,100.05,724.0,0.66,5.5,0.02,0.2,72.4,7.24,0.07