File: output/5/gznomad7-1.csv
Time,Voltage(V),Current(A),Energy(Wh),Capacity(Ah),Energy Proportion(%),Capacity Proportion(%),Irradiance(W/m2),Power(W),Sunlight Level
00:00:00,4.8540,0.2769,0.0037,0.0008,0.53,0.27,737.0,1.34,7.37
00:00:40,2.9110,0.3999,0.0143,0.0039,2.04,1.36,735.0,1.16,7.35
00:01:20,3.1040,0.3978,0.0250,0.0071,3.56,2.49,737.0,1.23,7.37
00:02:00,3.0740,0.3566,0.0334,0.0103,4.76,3.61,735.0,1.1,7.35
00:02:40,2.4090,0.2397,0.0423,0.0136,6.03,4.77,736.0,0.58,7.36
00:03:20,2.3350,0.1921,0.0476,0.0158,6.78,5.55,725.0,0.45,7.25
00:04:00,2.3380,0.1908,0.0525,0.0179,7.49,6.30,713.0,0.45,7.13
00:04:40,2.3420,0.1905,0.0575,0.0201,8.20,7.05,724.0,0.45,7.24
00:05:20,2.3440,0.1943,0.0625,0.0222,8.91,7.79,741.0,0.46,7.41
00:06:00,2.3430,0.1962,0.0675,0.0244,9.63,8.55,746.0,0.46,7.46
00:06:40,2.3430,0.1889,0.0726,0.0265,10.35,9.31,748.0,0.44,7.48
00:07:20,2.3480,0.1930,0.0777,0.0287,11.07,10.06,753.0,0.45,7.53
00:08:00,5.1380,0.0094,0.0813,0.0302,11.59,10.60,748.0,0.05,7.48
00:08:40,2.4990,0.2540,0.0916,0.0338,13.06,11.85,749.0,0.63,7.49
00:09:20,2.3340,0.1756,0.0966,0.0359,13.78,12.60,752.0,0.41,7.52
00:10:00,2.3360,0.1795,0.1013,0.0379,14.44,13.30,754.0,0.42,7.54
00:10:40,2.3410,0.1733,0.1059,0.0399,15.10,13.99,745.0,0.41,7.45
00:11:20,2.3360,0.1712,0.1105,0.0418,15.75,14.67,743.0,0.4,7.43
00:12:00,2.3530,0.1858,0.1151,0.0438,16.42,15.37,743.0,0.44,7.43
00:12:40,2.3370,0.1706,0.1197,0.0458,17.06,16.05,746.0,0.4,7.46
00:13:20,2.3430,0.1784,0.1244,0.0478,17.74,16.76,749.0,0.42,7.49
00:14:00,2.3430,0.1902,0.1292,0.0498,18.43,17.48,742.0,0.45,7.42
00:14:40,2.3440,0.1799,0.1338,0.0518,19.08,18.17,751.0,0.42,7.51
00:15:20,2.3430,0.1777,0.1387,0.0538,19.77,18.89,768.0,0.42,7.68
00:16:00,2.3430,0.1826,0.1434,0.0559,20.44,19.59,780.0,0.43,7.8
00:16:40,2.3480,0.2032,0.1484,0.0580,21.15,20.34,788.0,0.48,7.88
00:17:20,3.0920,0.4057,0.1612,0.0618,22.99,21.67,792.0,1.25,7.92
00:18:00,2.6470,0.3265,0.1737,0.0660,24.77,23.15,798.0,0.86,7.98
00:18:40,2.3560,0.2099,0.1798,0.0685,25.64,24.04,805.0,0.49,8.05
00:19:20,3.0510,0.4193,0.1917,0.0722,27.33,25.33,814.0,1.28,8.14
00:20:00,2.3790,0.2306,0.1995,0.0753,28.45,26.42,816.0,0.55,8.16
00:20:40,2.3480,0.1920,0.2046,0.0775,29.17,27.18,817.0,0.45,8.17
00:21:20,2.3610,0.2084,0.2097,0.0796,29.90,27.93,813.0,0.49,8.13
00:22:00,2.3620,0.2035,0.2148,0.0818,30.63,28.69,806.0,0.48,8.06
00:22:40,2.3660,0.1871,0.2198,0.0839,31.34,29.44,803.0,0.44,8.03
00:23:20,2.3620,0.1887,0.2248,0.0860,32.05,30.18,799.0,0.45,7.99
00:24:00,2.3670,0.1855,0.2298,0.0882,32.77,30.92,793.0,0.44,7.93
00:24:40,2.3650,0.1922,0.2349,0.0903,33.49,31.67,790.0,0.45,7.9
00:25:20,2.3570,0.1798,0.2398,0.0923,34.18,32.39,785.0,0.42,7.85
00:26:00,2.3610,0.1805,0.2445,0.0944,34.86,33.10,775.0,0.43,7.75
00:26:40,2.3670,0.1800,0.2494,0.0964,35.56,33.83,772.0,0.43,7.72
00:27:20,2.3660,0.1812,0.2542,0.0984,36.24,34.53,778.0,0.43,7.78
00:28:00,2.3660,0.1815,0.2591,0.1005,36.94,35.26,787.0,0.43,7.87
00:28:40,2.3540,0.1700,0.2635,0.1024,37.57,35.92,747.0,0.4,7.47
00:29:20,2.3250,0.0845,0.2670,0.1039,38.07,36.44,244.0,0.2,2.44
00:30:00,2.3440,0.1443,0.2695,0.1049,38.42,36.81,312.0,0.34,3.12
00:30:40,2.3580,0.1686,0.2743,0.1070,39.11,37.53,712.0,0.4,7.12
00:31:20,2.3710,0.1772,0.2781,0.1086,39.65,38.09,732.0,0.42,7.32
00:32:00,2.3550,0.1855,0.2828,0.1106,40.33,38.80,774.0,0.44,7.74
00:32:40,2.3580,0.1815,0.2878,0.1127,41.03,39.53,780.0,0.43,7.8
00:33:20,2.3600,0.1801,0.2926,0.1148,41.72,40.25,777.0,0.43,7.77
00:34:00,2.3600,0.1788,0.2975,0.1168,42.41,40.97,774.0,0.42,7.74
00:34:40,2.3630,0.1991,0.3026,0.1190,43.14,41.73,774.0,0.47,7.74
00:35:20,2.3570,0.1883,0.3073,0.1210,43.82,42.44,772.0,0.44,7.72
00:36:00,2.3540,0.1804,0.3123,0.1231,44.53,43.17,778.0,0.42,7.78
00:36:40,2.3660,0.1854,0.3171,0.1251,45.21,43.88,785.0,0.44,7.85
00:37:20,2.3600,0.1790,0.3218,0.1271,45.88,44.58,787.0,0.42,7.87
00:38:00,2.3580,0.1964,0.3267,0.1292,46.57,45.31,775.0,0.46,7.75
00:38:40,2.3620,0.1985,0.3316,0.1313,47.28,46.04,776.0,0.47,7.76
00:39:20,2.3600,0.1943,0.3365,0.1333,47.98,46.77,767.0,0.46,7.67
00:40:00,2.3580,0.1740,0.3414,0.1354,48.68,47.50,784.0,0.41,7.84
00:40:40,2.3550,0.1667,0.3458,0.1373,49.30,48.15,690.0,0.39,6.9
00:41:20,2.3580,0.1754,0.3506,0.1393,49.98,48.87,769.0,0.41,7.69
00:42:00,2.3490,0.1954,0.3555,0.1414,50.69,49.60,775.0,0.46,7.75
00:42:40,2.3630,0.1986,0.3603,0.1435,51.37,50.32,789.0,0.47,7.89
00:43:20,2.3470,0.1983,0.3653,0.1456,52.09,51.07,784.0,0.47,7.84
00:44:00,2.3510,0.1770,0.3701,0.1476,52.77,51.77,781.0,0.42,7.81
00:44:40,2.3420,0.1914,0.3749,0.1496,53.45,52.49,776.0,0.45,7.76
00:45:20,2.3380,0.1734,0.3796,0.1517,54.13,53.20,777.0,0.41,7.77
00:46:00,2.3460,0.1842,0.3845,0.1537,54.82,53.93,781.0,0.43,7.81
00:46:40,2.3530,0.1838,0.3892,0.1558,55.50,54.64,786.0,0.43,7.86
00:47:20,2.3510,0.1879,0.3939,0.1578,56.16,55.34,791.0,0.44,7.91
00:48:00,2.3500,0.1802,0.3988,0.1599,56.87,56.07,789.0,0.42,7.89
00:48:40,2.3470,0.1766,0.4035,0.1619,57.54,56.78,786.0,0.41,7.86
00:49:20,2.3410,0.1794,0.4082,0.1639,58.21,57.48,773.0,0.42,7.73
00:50:00,2.3380,0.1651,0.4128,0.1658,58.86,58.17,710.0,0.39,7.1
00:50:40,2.3280,0.1359,0.4171,0.1677,59.47,58.81,589.0,0.32,5.89
00:51:20,2.3440,0.1693,0.4209,0.1693,60.02,59.38,717.0,0.4,7.17
00:52:00,2.3480,0.1823,0.4257,0.1713,60.70,60.10,789.0,0.43,7.89
00:52:40,2.3500,0.1922,0.4306,0.1734,61.40,60.83,798.0,0.45,7.98
00:53:20,2.3460,0.1889,0.4356,0.1755,62.10,61.57,803.0,0.44,8.03
00:54:00,2.3440,0.1810,0.4406,0.1777,62.82,62.32,797.0,0.42,7.97
00:54:40,2.3410,0.1908,0.4454,0.1797,63.50,63.04,793.0,0.45,7.93
00:55:20,2.3470,0.1837,0.4502,0.1818,64.19,63.76,790.0,0.43,7.9
00:56:00,2.3390,0.1807,0.4549,0.1838,64.86,64.46,791.0,0.42,7.91
00:56:40,2.3360,0.1845,0.4596,0.1858,65.53,65.17,794.0,0.43,7.94
00:57:20,2.3430,0.1782,0.4644,0.1878,66.22,65.89,794.0,0.42,7.94
00:58:00,2.3430,0.1900,0.4694,0.1900,66.93,66.64,798.0,0.45,7.98
00:58:40,2.3500,0.1816,0.4744,0.1921,67.64,67.38,797.0,0.43,7.97
00:59:20,2.3550,0.1804,0.4792,0.1941,68.32,68.09,793.0,0.42,7.93
01:00:00,2.3520,0.1802,0.4842,0.1962,69.03,68.83,794.0,0.42,7.94
01:00:40,2.3540,0.1869,0.4891,0.1983,69.74,69.57,796.0,0.44,7.96
01:01:20,2.3530,0.1797,0.4939,0.2004,70.42,70.28,795.0,0.42,7.95
01:02:00,2.3680,0.1756,0.4988,0.2025,71.12,71.02,798.0,0.42,7.98
01:02:40,2.3630,0.1837,0.5037,0.2045,71.82,71.74,797.0,0.43,7.97
01:03:20,2.3720,0.1902,0.5087,0.2066,72.53,72.47,798.0,0.45,7.98
01:04:00,2.3780,0.2033,0.5139,0.2088,73.28,73.25,793.0,0.48,7.93
01:04:40,2.3810,0.1953,0.5194,0.2111,74.05,74.05,792.0,0.47,7.92
01:05:20,2.3850,0.2058,0.5247,0.2133,74.81,74.83,793.0,0.49,7.93
01:06:00,2.3850,0.1942,0.5300,0.2156,75.57,75.61,797.0,0.46,7.97
01:06:40,2.3780,0.2129,0.5353,0.2178,76.33,76.40,797.0,0.51,7.97
01:07:20,2.3680,0.1909,0.5404,0.2200,77.06,77.16,802.0,0.45,8.02
01:08:00,3.4270,0.5287,0.5469,0.2220,77.98,77.88,798.0,1.81,7.98
01:08:40,3.0270,0.4082,0.5507,0.2232,78.52,78.30,797.0,1.24,7.97
01:09:20,3.0170,0.4123,0.5644,0.2278,80.47,79.89,795.0,1.24,7.95
01:10:00,2.5460,0.2904,0.5760,0.2318,82.12,81.32,793.0,0.74,7.93
01:10:40,2.3380,0.1801,0.5815,0.2341,82.91,82.13,794.0,0.42,7.94
01:11:20,2.3420,0.1811,0.5863,0.2362,83.59,82.84,793.0,0.42,7.93
01:12:00,2.3450,0.1998,0.5912,0.2383,84.30,83.59,794.0,0.47,7.94
01:12:40,2.3480,0.1810,0.5960,0.2403,84.97,84.29,793.0,0.42,7.93
01:13:20,2.3560,0.1808,0.6007,0.2423,85.65,85.00,793.0,0.43,7.93
01:14:00,2.3490,0.1789,0.6054,0.2443,86.32,85.70,795.0,0.42,7.95
01:14:40,2.3540,0.1800,0.6104,0.2465,87.04,86.45,798.0,0.42,7.98
01:15:20,2.3480,0.1792,0.6151,0.2485,87.71,87.15,796.0,0.42,7.96
01:16:00,2.3500,0.1782,0.6199,0.2505,88.39,87.87,791.0,0.42,7.91
01:16:40,2.3450,0.1777,0.6245,0.2525,89.05,88.55,790.0,0.42,7.9
01:17:20,2.3540,0.1788,0.6292,0.2544,89.71,89.25,793.0,0.42,7.93
01:18:00,2.3500,0.1851,0.6340,0.2565,90.39,89.96,794.0,0.43,7.94
01:18:40,2.3470,0.1765,0.6388,0.2585,91.07,90.68,796.0,0.41,7.96
01:19:20,2.3500,0.1828,0.6435,0.2605,91.75,91.39,791.0,0.43,7.91
01:20:00,2.3550,0.1817,0.6482,0.2625,92.42,92.08,793.0,0.43,7.93
01:20:40,2.3620,0.1978,0.6532,0.2646,93.13,92.83,792.0,0.47,7.92
01:21:20,2.3490,0.1787,0.6579,0.2666,93.80,93.53,799.0,0.42,7.99
01:22:00,2.3550,0.1777,0.6625,0.2686,94.47,94.22,801.0,0.42,8.01
01:22:40,2.3480,0.1789,0.6674,0.2707,95.15,94.94,803.0,0.42,8.03
01:23:20,2.3550,0.1809,0.6720,0.2727,95.82,95.64,803.0,0.43,8.03
01:24:00,2.3530,0.1790,0.6769,0.2747,96.52,96.37,803.0,0.42,8.03
01:24:40,2.3560,0.2003,0.6818,0.2768,97.21,97.09,804.0,0.47,8.04
01:25:20,2.3630,0.1838,0.6868,0.2789,97.92,97.83,804.0,0.43,8.04
01:26:00,2.3660,0.2021,0.6917,0.2810,98.62,98.56,803.0,0.48,8.03
01:26:40,2.3590,0.1983,0.6965,0.2830,99.31,99.28,799.0,0.47,7.99
01:27:20,2.3630,0.1998,0.7013,0.2851,100.00,100.00,801.0,0.47,8.01
01:27:30,2.3680,0.1998,0.7027,0.2856,100.19,100.19,801.0,0.47,8.01