File: output/5/ravpower-2.csv
Time,Voltage(V),Current(A),Energy(Wh),Capacity(Ah),Energy Proportion(%),Capacity Proportion(%),Irradiance(W/m2),Power(W),Power Score,Watts/oz,cW/oz,Sun Score,Irradiance/100,Efficiency(%)
00:00:00,4.4370,2.0004,0.0247,0.0056,1.04,0.91,803.0,8.88,111.0,0.56,5.6,80.3,8.03,1.01
00:00:50,4.2870,1.9583,0.0991,0.0226,4.17,3.72,796.0,8.4,105.0,0.53,5.3,79.6,7.96,0.96
00:01:40,4.1820,2.0017,0.2155,0.0504,9.06,8.29,797.0,8.37,104.6,0.52,5.2,79.7,7.97,0.95
00:02:30,4.1120,1.9979,0.2841,0.0669,11.95,11.00,794.0,8.22,102.8,0.51,5.1,79.4,7.94,0.94
00:03:20,4.0950,1.9976,0.3086,0.0728,12.98,11.97,811.0,8.18,102.3,0.51,5.1,81.1,8.11,0.92
00:04:10,4.0870,1.9999,0.3544,0.0840,14.91,13.81,812.0,8.17,102.1,0.51,5.1,81.2,8.12,0.91
00:05:00,5.2730,0.1768,0.4106,0.0973,17.27,15.99,804.0,0.93,11.6,0.06,0.6,80.4,8.04,0.11
00:05:50,5.3030,0.0091,0.4550,0.1085,19.14,17.84,798.0,0.05,0.6,0.0,0.0,79.8,7.98,0.01
00:06:40,4.0900,1.6739,0.5404,0.1301,22.73,21.39,788.0,6.85,85.6,0.43,4.3,78.8,7.88,0.79
00:07:30,3.8480,1.9985,0.6477,0.1579,27.24,25.95,780.0,7.69,96.1,0.48,4.8,78.0,7.8,0.9
00:08:20,3.7930,1.9751,0.7322,0.1800,30.80,29.58,782.0,7.49,93.6,0.47,4.7,78.2,7.82,0.87
00:09:10,5.3080,0.0092,0.7955,0.1966,33.46,32.31,780.0,0.05,0.6,0.0,0.0,78.0,7.8,0.01
00:10:00,5.2410,0.0074,0.8170,0.2022,34.37,33.23,775.0,0.04,0.5,0.0,0.0,77.5,7.75,0.0
00:10:50,5.2550,0.0080,0.8175,0.2023,34.39,33.25,773.0,0.04,0.5,0.0,0.0,77.3,7.73,0.0
00:11:40,4.2700,0.0046,0.8179,0.2024,34.40,33.26,783.0,0.02,0.3,0.0,0.0,78.3,7.83,0.0
00:12:30,4.1900,0.0045,0.8182,0.2024,34.42,33.27,777.0,0.02,0.3,0.0,0.0,77.7,7.77,0.0
00:13:20,4.1330,0.0044,0.8184,0.2025,34.43,33.28,777.0,0.02,0.3,0.0,0.0,77.7,7.77,0.0
00:14:10,4.1540,0.0045,0.8187,0.2026,34.44,33.29,778.0,0.02,0.3,0.0,0.0,77.8,7.78,0.0
00:15:00,4.1500,0.0045,0.8189,0.2026,34.45,33.30,782.0,0.02,0.3,0.0,0.0,78.2,7.82,0.0
00:15:50,4.2040,0.0045,0.8192,0.2027,34.46,33.32,789.0,0.02,0.3,0.0,0.0,78.9,7.89,0.0
00:16:40,4.2790,0.0047,0.8195,0.2027,34.47,33.33,791.0,0.02,0.3,0.0,0.0,79.1,7.91,0.0
00:17:30,3.6900,2.0003,0.8404,0.2084,35.35,34.25,796.0,7.38,92.3,0.46,4.6,79.6,7.96,0.84
00:18:20,4.6300,0.0053,0.8617,0.2140,36.25,35.18,791.0,0.02,0.3,0.0,0.0,79.1,7.91,0.0
00:19:10,4.2660,0.0046,0.8620,0.2141,36.26,35.19,788.0,0.02,0.3,0.0,0.0,78.8,7.88,0.0
00:20:00,4.1320,0.0044,0.8623,0.2141,36.27,35.20,786.0,0.02,0.3,0.0,0.0,78.6,7.86,0.0
00:20:50,4.2500,0.0045,0.8625,0.2142,36.28,35.21,786.0,0.02,0.3,0.0,0.0,78.6,7.86,0.0
00:21:40,4.4230,0.0050,0.8629,0.2143,36.30,35.22,786.0,0.02,0.3,0.0,0.0,78.6,7.86,0.0
00:22:30,5.2890,0.0075,0.8634,0.2144,36.32,35.24,810.0,0.04,0.5,0.0,0.0,81.0,8.1,0.0
00:23:20,4.1470,0.0045,0.8637,0.2144,36.33,35.25,817.0,0.02,0.3,0.0,0.0,81.7,8.17,0.0
00:24:10,4.3590,0.8566,0.8744,0.2169,36.78,35.65,516.0,3.73,46.6,0.23,2.3,51.6,5.16,0.66
00:25:00,4.1220,0.0044,0.8769,0.2181,36.89,35.86,370.0,0.02,0.3,0.0,0.0,37.0,3.7,0.0
00:25:50,3.8470,2.0011,0.9869,0.2460,41.52,40.43,853.0,7.7,96.3,0.48,4.8,85.3,8.53,0.82
00:26:40,3.9120,1.9979,1.0735,0.2681,45.16,44.07,823.0,7.82,97.8,0.49,4.9,82.3,8.23,0.86
00:27:30,1.9090,0.1089,1.1408,0.2857,47.99,46.97,209.0,0.21,2.6,0.01,0.1,20.9,2.09,0.09
00:28:20,3.9480,1.9996,1.1683,0.2930,49.14,48.17,625.0,7.89,98.6,0.49,4.9,62.5,6.25,1.15
00:29:10,3.9090,1.9967,1.2564,0.3153,52.85,51.82,820.0,7.81,97.6,0.49,4.9,82.0,8.2,0.87
00:30:00,3.9170,1.9969,1.3220,0.3320,55.61,54.57,808.0,7.82,97.8,0.49,4.9,80.8,8.08,0.88
00:30:50,3.8100,1.9920,1.4084,0.3542,59.24,58.22,794.0,7.59,94.9,0.47,4.7,79.4,7.94,0.87
00:31:40,3.8580,1.9961,1.4968,0.3768,62.96,61.94,794.0,7.7,96.3,0.48,4.8,79.4,7.94,0.88
00:32:30,3.8210,1.9920,1.5822,0.3990,66.55,65.59,786.0,7.61,95.1,0.48,4.8,78.6,7.86,0.88
00:33:20,3.7950,1.9772,1.6245,0.4101,68.33,67.41,768.0,7.5,93.8,0.47,4.7,76.8,7.68,0.89
00:34:10,3.8080,1.9666,1.6708,0.4220,70.28,69.36,770.0,7.49,93.6,0.47,4.7,77.0,7.7,0.88
00:35:00,3.8070,1.9861,1.7337,0.4385,72.93,72.08,770.0,7.56,94.5,0.47,4.7,77.0,7.7,0.89
00:35:50,5.2260,0.0077,1.7970,0.4551,75.59,74.81,781.0,0.04,0.5,0.0,0.0,78.1,7.81,0.0
00:36:40,5.3030,0.0091,1.7977,0.4552,75.62,74.83,793.0,0.05,0.6,0.0,0.0,79.3,7.93,0.01
00:37:30,4.2960,0.0045,1.7980,0.4553,75.63,74.84,795.0,0.02,0.3,0.0,0.0,79.5,7.95,0.0
00:38:20,4.1410,0.0044,1.7983,0.4554,75.64,74.85,790.0,0.02,0.3,0.0,0.0,79.0,7.9,0.0
00:39:10,4.1340,0.0044,1.7986,0.4554,75.66,74.86,802.0,0.02,0.3,0.0,0.0,80.2,8.02,0.0
00:40:00,4.1320,0.0045,1.7988,0.4555,75.67,74.87,802.0,0.02,0.3,0.0,0.0,80.2,8.02,0.0
00:40:50,4.1100,0.0046,1.7991,0.4556,75.68,74.88,802.0,0.02,0.3,0.0,0.0,80.2,8.02,0.0
00:41:40,4.1930,0.0045,1.7993,0.4556,75.69,74.89,802.0,0.02,0.3,0.0,0.0,80.2,8.02,0.0
00:42:30,4.1380,0.0045,1.7996,0.4557,75.70,74.90,802.0,0.02,0.3,0.0,0.0,80.2,8.02,0.0
00:43:20,4.1590,0.0045,1.7999,0.4557,75.71,74.91,810.0,0.02,0.3,0.0,0.0,81.0,8.1,0.0
00:44:10,4.1340,0.0046,1.8001,0.4558,75.72,74.92,815.0,0.02,0.3,0.0,0.0,81.5,8.15,0.0
00:45:00,4.2670,0.0045,1.8004,0.4559,75.73,74.93,819.0,0.02,0.3,0.0,0.0,81.9,8.19,0.0
00:45:50,4.1410,0.0045,1.8007,0.4559,75.74,74.94,818.0,0.02,0.3,0.0,0.0,81.8,8.18,0.0
00:46:40,4.1410,0.0044,1.8009,0.4560,75.75,74.95,825.0,0.02,0.3,0.0,0.0,82.5,8.25,0.0
00:47:30,4.1990,0.0044,1.8012,0.4561,75.77,74.96,854.0,0.02,0.3,0.0,0.0,85.4,8.54,0.0
00:48:20,4.1660,0.0045,1.8015,0.4561,75.78,74.97,858.0,0.02,0.3,0.0,0.0,85.8,8.58,0.0
00:49:10,3.5030,1.9583,1.8207,0.4616,76.59,75.88,806.0,6.86,85.8,0.43,4.3,80.6,8.06,0.77
00:50:00,1.9660,0.0909,1.8342,0.4651,77.16,76.45,195.5,0.18,2.3,0.01,0.1,19.6,1.955,0.08
00:50:50,4.3870,0.0046,1.8368,0.4664,77.26,76.65,543.0,0.02,0.3,0.0,0.0,54.3,5.43,0.0
00:51:40,4.3350,0.0046,1.8387,0.4673,77.35,76.81,356.0,0.02,0.3,0.0,0.0,35.6,3.56,0.01
00:52:30,3.8570,2.0020,1.9250,0.4896,80.97,80.47,776.0,7.72,96.5,0.48,4.8,77.6,7.76,0.9
00:53:20,5.2950,0.0372,1.9845,0.5044,83.48,82.92,770.0,0.2,2.5,0.01,0.1,77.0,7.7,0.02
00:54:10,5.3070,0.0091,2.0063,0.5101,84.39,83.84,766.0,0.05,0.6,0.0,0.0,76.6,7.66,0.01
00:55:00,3.7370,1.8619,2.0859,0.5306,87.74,87.22,757.0,6.96,87.0,0.44,4.4,75.7,7.57,0.84
00:55:50,3.7620,1.9460,2.1067,0.5361,88.62,88.13,742.0,7.32,91.5,0.46,4.6,74.2,7.42,0.9
00:56:40,3.8180,1.9628,2.1691,0.5526,91.24,90.82,758.0,7.49,93.6,0.47,4.7,75.8,7.58,0.9
00:57:30,5.3030,0.0093,2.2110,0.5636,93.00,92.64,764.0,0.05,0.6,0.0,0.0,76.4,7.64,0.01
00:58:20,4.3230,0.0048,2.2114,0.5637,93.02,92.65,771.0,0.02,0.3,0.0,0.0,77.1,7.71,0.0
00:59:10,4.3040,0.0046,2.2117,0.5637,93.03,92.66,772.0,0.02,0.3,0.0,0.0,77.2,7.72,0.0
01:00:00,4.1610,0.0045,2.2119,0.5638,93.04,92.67,765.0,0.02,0.3,0.0,0.0,76.5,7.65,0.0
01:00:50,4.1230,0.0046,2.2122,0.5639,93.06,92.68,761.0,0.02,0.3,0.0,0.0,76.1,7.61,0.0
01:01:40,4.1350,0.0046,2.2125,0.5639,93.07,92.69,761.0,0.02,0.3,0.0,0.0,76.1,7.61,0.0
01:02:30,5.2650,0.0084,2.2128,0.5640,93.08,92.71,764.0,0.04,0.5,0.0,0.0,76.4,7.64,0.0
01:03:20,4.1690,0.0046,2.2131,0.5641,93.09,92.72,765.0,0.02,0.3,0.0,0.0,76.5,7.65,0.0
01:04:10,4.2150,0.0045,2.2134,0.5641,93.11,92.73,769.0,0.02,0.3,0.0,0.0,76.9,7.69,0.0
01:05:00,2.0240,0.1511,2.2377,0.5708,94.13,93.82,538.0,0.31,3.9,0.02,0.2,53.8,5.38,0.05
01:05:50,1.9490,0.0974,2.2398,0.5719,94.22,94.00,166.7,0.19,2.4,0.01,0.1,16.7,1.667,0.1
01:06:40,3.6770,1.8937,2.2782,0.5827,95.83,95.79,633.0,6.96,87.0,0.44,4.4,63.3,6.33,1.0
01:07:30,3.7370,1.9467,2.3389,0.5990,98.38,98.45,722.0,7.27,90.9,0.45,4.5,72.2,7.22,0.92
01:08:20,5.3050,0.0091,2.3705,0.6068,99.72,99.74,714.0,0.05,0.6,0.0,0.0,71.4,7.14,0.01
01:09:10,4.4670,0.0050,2.3712,0.6069,99.74,99.76,713.0,0.02,0.3,0.0,0.0,71.3,7.13,0.0
01:10:00,4.1550,0.0044,2.3715,0.6070,99.76,99.77,692.0,0.02,0.3,0.0,0.0,69.2,6.92,0.0
01:10:50,4.1540,0.0044,2.3717,0.6071,99.77,99.78,697.0,0.02,0.3,0.0,0.0,69.7,6.97,0.0
01:11:40,4.1190,0.0044,2.3720,0.6071,99.78,99.79,692.0,0.02,0.3,0.0,0.0,69.2,6.92,0.0
01:12:30,4.1280,0.0044,2.3723,0.6072,99.79,99.80,685.0,0.02,0.3,0.0,0.0,68.5,6.85,0.0
01:13:20,4.0890,0.0044,2.3725,0.6072,99.80,99.81,684.0,0.02,0.3,0.0,0.0,68.4,6.84,0.0
01:14:10,4.1100,0.0044,2.3728,0.6073,99.81,99.82,688.0,0.02,0.3,0.0,0.0,68.8,6.88,0.0
01:15:00,4.2050,0.0045,2.3730,0.6074,99.82,99.83,694.0,0.02,0.3,0.0,0.0,69.4,6.94,0.0
01:15:50,4.1700,0.0045,2.3733,0.6074,99.83,99.84,688.0,0.02,0.3,0.0,0.0,68.8,6.88,0.0
01:16:40,4.2420,0.0046,2.3735,0.6075,99.84,99.85,693.0,0.02,0.3,0.0,0.0,69.3,6.93,0.0
01:17:30,4.3460,0.0047,2.3738,0.6076,99.85,99.86,694.0,0.02,0.3,0.0,0.0,69.4,6.94,0.0
01:18:20,4.2210,0.0046,2.3741,0.6076,99.87,99.87,697.0,0.02,0.3,0.0,0.0,69.7,6.97,0.0
01:19:10,4.2750,0.0046,2.3744,0.6077,99.88,99.89,697.0,0.02,0.3,0.0,0.0,69.7,6.97,0.0
01:20:00,4.2160,0.0046,2.3746,0.6077,99.89,99.90,699.0,0.02,0.3,0.0,0.0,69.9,6.99,0.0
01:20:50,4.2770,0.0045,2.3749,0.6078,99.90,99.91,672.0,0.02,0.3,0.0,0.0,67.2,6.72,0.0
01:21:40,4.2710,0.0046,2.3752,0.6079,99.91,99.92,693.0,0.02,0.3,0.0,0.0,69.3,6.93,0.0
01:22:30,4.2340,0.0044,2.3754,0.6079,99.92,99.93,702.0,0.02,0.3,0.0,0.0,70.2,7.02,0.0
01:23:20,4.1730,0.0045,2.3757,0.6080,99.93,99.94,688.0,0.02,0.3,0.0,0.0,68.8,6.88,0.0
01:24:10,4.1300,0.0044,2.3760,0.6081,99.94,99.95,683.0,0.02,0.3,0.0,0.0,68.3,6.83,0.0
01:25:00,4.1550,0.0045,2.3762,0.6081,99.95,99.96,698.0,0.02,0.3,0.0,0.0,69.8,6.98,0.0
01:25:50,4.1790,0.0045,2.3765,0.6082,99.97,99.97,692.0,0.02,0.3,0.0,0.0,69.2,6.92,0.0
01:26:40,4.1690,0.0044,2.3767,0.6082,99.98,99.98,675.0,0.02,0.3,0.0,0.0,67.5,6.75,0.0
01:27:30,4.1250,0.0044,2.3770,0.6083,99.99,99.99,638.0,0.02,0.3,0.0,0.0,63.8,6.38,0.0
01:28:20,4.2610,0.0046,2.3772,0.6084,100.00,100.00,623.0,0.02,0.3,0.0,0.0,62.3,6.23,0.0
01:28:40,4.1690,0.0047,2.3774,0.6084,100.00,100.00,654.0,0.02,0.3,0.0,0.0,65.4,6.54,0.0