File: output/5/renogy-2.csv
Time,Voltage(V),Current(A),Energy(Wh),Capacity(Ah),Energy Proportion(%),Capacity Proportion(%),Irradiance(W/m2),Power(W),Sunlight Level
00:00:00,2.9410,1.4623,0.0119,0.0041,0.16,0.14,786.0,4.3,7.86
00:01:40,2.8120,1.4553,0.1281,0.0445,1.72,1.55,782.0,4.09,7.82
00:03:20,2.7610,1.4360,0.2405,0.0848,3.23,2.96,789.0,3.96,7.89
00:05:00,2.7090,1.4193,0.3495,0.1246,4.70,4.35,797.0,3.84,7.97
00:06:40,2.6480,1.3076,0.4504,0.1623,6.05,5.67,786.0,3.46,7.86
00:08:20,2.6190,1.2879,0.5474,0.1990,7.36,6.95,770.0,3.37,7.7
00:10:00,2.6040,1.3325,0.6445,0.2361,8.66,8.24,768.0,3.47,7.68
00:11:40,2.6040,1.3391,0.7409,0.2732,9.96,9.54,754.0,3.49,7.54
00:13:20,2.7520,1.3383,0.8342,0.3071,11.21,10.72,760.0,3.68,7.6
00:15:00,2.7890,1.2654,0.9325,0.3426,12.53,11.96,755.0,3.53,7.55
00:16:40,2.8170,1.3238,1.0322,0.3782,13.87,13.21,758.0,3.73,7.58
00:18:20,2.8080,1.3475,1.1349,0.4147,15.25,14.48,769.0,3.78,7.69
00:20:00,2.7260,1.3253,1.2321,0.4499,16.55,15.71,751.0,3.61,7.51
00:21:40,2.6740,1.3636,1.3329,0.4873,17.91,17.01,770.0,3.65,7.7
00:23:20,2.6310,1.3309,1.4339,0.5253,19.27,18.34,775.0,3.5,7.75
00:25:00,2.4140,0.3283,1.4601,0.5361,19.62,18.72,150.9,0.79,1.509
00:26:40,2.4660,0.3908,1.4827,0.5454,19.92,19.04,170.6,0.96,1.706
00:28:20,2.6690,1.3959,1.5677,0.5773,21.06,20.16,806.0,3.73,8.06
00:30:00,2.6460,1.3844,1.6702,0.6159,22.44,21.51,793.0,3.66,7.93
00:31:40,2.6100,1.3640,1.7700,0.6540,23.78,22.84,778.0,3.56,7.78
00:33:20,2.5830,1.3014,1.8668,0.6912,25.08,24.13,773.0,3.36,7.73
00:35:00,2.7280,1.2652,1.9612,0.7265,26.35,25.36,754.0,3.45,7.54
00:36:40,2.7930,1.3479,2.0598,0.7622,27.68,26.61,773.0,3.76,7.73
00:38:20,2.7940,1.2778,2.1625,0.7989,29.06,27.89,748.0,3.57,7.48
00:40:00,2.5270,0.4837,2.2372,0.8265,30.06,28.86,204.0,1.22,2.04
00:41:40,2.5990,0.7538,2.2764,0.8419,30.59,29.40,316.0,1.96,3.16
00:43:20,2.6940,1.3837,2.3725,0.8776,31.88,30.64,793.0,3.73,7.93
00:45:00,2.5820,0.9983,2.4608,0.9109,33.06,31.81,346.0,2.58,3.46
00:46:40,2.6350,1.3520,2.5608,0.9487,34.41,33.12,777.0,3.56,7.77
00:48:20,2.4260,0.4705,2.6196,0.9718,35.20,33.93,218.0,1.14,2.18
00:50:00,2.6620,1.3753,2.6708,0.9919,35.89,34.63,786.0,3.66,7.86
00:51:40,2.6440,1.3368,2.7701,1.0294,37.22,35.94,763.0,3.53,7.63
00:53:20,2.6010,1.0801,2.8358,1.0549,38.10,36.83,564.0,2.81,5.64
00:55:00,2.6270,1.3379,2.9227,1.0880,39.27,37.99,746.0,3.51,7.46
00:56:40,2.5780,1.2439,3.0166,1.1241,40.53,39.25,712.0,3.21,7.12
00:58:20,2.3830,0.3556,3.0521,1.1386,41.01,39.75,164.4,0.85,1.644
01:00:00,2.4040,0.3438,3.0838,1.1515,41.44,40.21,160.3,0.83,1.603
01:01:40,2.4260,0.3344,3.1058,1.1607,41.73,40.52,154.1,0.81,1.541
01:03:20,2.6590,1.2705,3.1740,1.1866,42.65,41.43,694.0,3.38,6.94
01:05:00,2.4570,0.4455,3.2088,1.2005,43.12,41.92,206.0,1.09,2.06
01:06:40,2.4440,0.3232,3.2356,1.2115,43.48,42.30,149.7,0.79,1.497
01:08:20,2.4680,0.3143,3.2570,1.2202,43.76,42.60,143.4,0.78,1.434
01:10:00,2.5040,0.3652,3.2794,1.2292,44.06,42.92,159.3,0.91,1.593
01:11:40,2.5010,0.3302,3.3033,1.2388,44.38,43.25,148.8,0.83,1.488
01:13:20,2.5100,0.3237,3.3258,1.2477,44.69,43.57,150.0,0.81,1.5
01:15:00,2.7260,1.2531,3.3756,1.2665,45.36,44.22,658.0,3.42,6.58
01:16:40,2.4760,0.2954,3.4152,1.2817,45.89,44.75,128.5,0.73,1.285
01:18:20,2.4860,0.2690,3.4346,1.2895,46.15,45.02,112.6,0.67,1.126
01:20:00,2.4820,0.2419,3.4519,1.2965,46.38,45.27,97.5,0.6,0.975
01:21:40,2.4960,0.2464,3.4688,1.3033,46.61,45.50,99.5,0.62,0.995
01:23:20,2.5310,0.2786,3.4868,1.3104,46.85,45.75,115.8,0.71,1.158
01:25:00,2.5910,0.5037,3.5110,1.3199,47.18,46.09,210.0,1.31,2.1
01:26:40,2.7080,1.1770,3.5937,1.3503,48.29,47.15,608.0,3.19,6.08
01:28:20,2.6470,1.1268,3.6794,1.3824,49.44,48.27,584.0,2.98,5.84
01:30:00,2.6160,1.1290,3.7618,1.4137,50.55,49.36,576.0,2.95,5.76
01:31:40,2.5140,0.6743,3.8296,1.4400,51.46,50.28,313.0,1.7,3.13
01:33:20,2.6100,1.1054,3.9064,1.4695,52.49,51.31,562.0,2.89,5.62
01:35:00,2.5900,1.1001,3.9861,1.5002,53.56,52.38,560.0,2.85,5.6
01:36:40,2.5780,1.0830,4.0650,1.5306,54.62,53.44,558.0,2.79,5.58
01:38:20,2.5610,1.0465,4.1406,1.5601,55.64,54.47,553.0,2.68,5.53
01:40:00,2.5560,1.0364,4.2144,1.5889,56.63,55.48,546.0,2.65,5.46
01:41:40,2.5540,1.0274,4.2871,1.6174,57.60,56.47,539.0,2.62,5.39
01:43:20,2.5540,1.0184,4.3583,1.6454,58.56,57.45,532.0,2.6,5.32
01:45:00,2.5370,1.0087,4.4301,1.6736,59.53,58.43,530.0,2.56,5.3
01:46:40,2.5350,1.0044,4.5012,1.7016,60.48,59.41,524.0,2.55,5.24
01:48:20,2.5390,1.0031,4.5713,1.7292,61.42,60.38,521.0,2.55,5.21
01:50:00,2.5330,0.9984,4.6418,1.7570,62.37,61.35,518.0,2.53,5.18
01:51:40,2.5240,0.9581,4.7098,1.7840,63.28,62.29,521.0,2.42,5.21
01:53:20,2.5250,0.9828,4.7775,1.8108,64.19,63.23,510.0,2.48,5.1
01:55:00,2.5240,0.9755,4.8461,1.8380,65.12,64.18,506.0,2.46,5.06
01:56:40,2.5270,0.9600,4.9112,1.8639,65.99,65.08,499.0,2.43,4.99
01:58:20,2.5140,0.9157,4.9754,1.8894,66.85,65.97,495.0,2.3,4.95
02:00:00,2.5200,0.9264,5.0399,1.9150,67.72,66.86,499.0,2.33,4.99
02:01:40,2.5170,0.9131,5.1043,1.9406,68.58,67.76,492.0,2.3,4.92
02:03:20,2.5210,0.9418,5.1699,1.9666,69.47,68.66,482.0,2.37,4.82
02:05:00,2.5210,0.9450,5.2361,1.9928,70.35,69.58,481.0,2.38,4.81
02:06:40,2.5260,0.9567,5.3029,2.0193,71.25,70.50,486.0,2.42,4.86
02:08:20,2.5070,0.8978,5.3682,2.0452,72.13,71.41,483.0,2.25,4.83
02:10:00,2.5180,0.9309,5.4328,2.0709,73.00,72.31,474.0,2.34,4.74
02:11:40,2.5140,0.9174,5.4973,2.0965,73.86,73.20,465.0,2.31,4.65
02:13:20,2.5210,0.9202,5.5615,2.1220,74.73,74.09,469.0,2.32,4.69
02:15:00,2.5330,0.9294,5.6266,2.1477,75.60,74.99,472.0,2.35,4.72
02:16:40,2.5300,0.9253,5.6919,2.1735,76.48,75.89,472.0,2.34,4.72
02:18:20,2.5250,0.9175,5.7567,2.1992,77.35,76.78,467.0,2.32,4.67
02:20:00,2.5220,0.9149,5.8207,2.2245,78.21,77.67,462.0,2.31,4.62
02:21:40,2.5230,0.9172,5.8848,2.2500,79.07,78.56,464.0,2.31,4.64
02:23:20,2.5130,0.9018,5.9483,2.2752,79.92,79.44,455.0,2.27,4.55
02:25:00,2.5260,0.8852,6.0108,2.3000,80.76,80.31,446.0,2.24,4.46
02:26:40,2.5290,0.8706,6.0724,2.3244,81.59,81.16,437.0,2.2,4.37
02:28:20,2.5320,0.8658,6.1332,2.3484,82.41,82.00,434.0,2.19,4.34
02:30:00,2.5400,0.8915,6.1963,2.3732,83.26,82.86,431.0,2.26,4.31
02:31:40,2.5340,0.8810,6.2588,2.3978,84.10,83.72,424.0,2.23,4.24
02:33:20,2.5350,0.8751,6.3204,2.4222,84.92,84.57,421.0,2.22,4.21
02:35:00,2.5320,0.8377,6.3807,2.4459,85.73,85.40,405.0,2.12,4.05
02:36:40,2.5390,0.8475,6.4400,2.4694,86.53,86.22,407.0,2.15,4.07
02:38:20,2.5380,0.8016,6.4989,2.4925,87.32,87.03,392.0,2.03,3.92
02:40:00,2.5130,0.5860,6.5232,2.5025,87.65,87.37,232.0,1.47,2.32
02:41:40,2.4270,0.2312,6.5482,2.5126,87.99,87.73,93.6,0.56,0.936
02:43:20,2.4430,0.2262,6.5637,2.5189,88.19,87.95,92.4,0.55,0.924
02:45:00,2.4600,0.2247,6.5790,2.5252,88.40,88.17,92.8,0.55,0.928
02:46:40,2.4760,0.2308,6.5946,2.5315,88.61,88.39,95.3,0.57,0.953
02:48:20,2.5830,0.5731,6.6213,2.5420,88.97,88.75,267.0,1.48,2.67
02:50:00,2.5130,0.3164,6.6397,2.5493,89.21,89.01,128.7,0.8,1.287
02:51:40,2.6290,0.8015,6.6863,2.5672,89.84,89.64,374.0,2.11,3.74
02:53:20,2.6090,0.8071,6.7454,2.5898,90.63,90.42,383.0,2.11,3.83
02:55:00,2.5860,0.7951,6.8031,2.6120,91.41,91.20,378.0,2.06,3.78
02:56:40,2.5770,0.7912,6.8599,2.6341,92.17,91.97,378.0,2.04,3.78
02:58:20,2.5740,0.7982,6.9168,2.6561,92.94,92.74,382.0,2.05,3.82
03:00:00,2.5670,0.8105,6.9743,2.6785,93.71,93.52,387.0,2.08,3.87
03:01:40,2.5660,0.8075,7.0319,2.7010,94.48,94.31,391.0,2.07,3.91
03:03:20,2.5540,0.7700,7.0879,2.7229,95.24,95.07,372.0,1.97,3.72
03:05:00,2.5520,0.7332,7.1412,2.7437,95.95,95.80,352.0,1.87,3.52
03:06:40,2.4420,0.2489,7.1657,2.7536,96.28,96.14,113.1,0.61,1.131
03:08:20,2.4580,0.2281,7.1821,2.7603,96.50,96.38,103.7,0.56,1.037
03:10:00,2.4790,0.2271,7.1975,2.7665,96.71,96.59,107.8,0.56,1.078
03:11:40,2.4660,0.1766,7.2101,2.7716,96.88,96.77,75.0,0.44,0.75
03:13:20,2.4840,0.1722,7.2220,2.7764,97.04,96.94,72.1,0.43,0.721
03:15:00,2.5000,0.1700,7.2349,2.7816,97.21,97.12,71.6,0.43,0.716
03:16:40,2.4940,0.1450,7.2463,2.7862,97.37,97.28,60.5,0.36,0.605
03:18:20,2.4910,0.1213,7.2554,2.7898,97.49,97.41,51.5,0.3,0.515
03:20:00,2.4900,0.1036,7.2631,2.7929,97.59,97.51,41.8,0.26,0.418
03:21:40,2.4880,0.0900,7.2697,2.7955,97.68,97.61,34.4,0.22,0.344
03:23:20,2.4900,0.0802,7.2755,2.7979,97.76,97.69,29.8,0.2,0.298
03:25:00,2.4820,0.0784,7.2809,2.8001,97.83,97.77,29.2,0.19,0.292
03:26:40,2.4880,0.0804,7.2864,2.8023,97.90,97.84,29.7,0.2,0.297
03:28:20,2.4940,0.0822,7.2920,2.8045,97.98,97.92,30.7,0.21,0.307
03:30:00,2.4970,0.0835,7.2977,2.8068,98.06,98.00,31.6,0.21,0.316
03:31:40,2.5020,0.0893,7.3038,2.8092,98.14,98.08,34.6,0.22,0.346
03:33:20,2.5050,0.0883,7.3099,2.8117,98.22,98.17,33.6,0.22,0.336
03:35:00,2.5060,0.0868,7.3160,2.8141,98.30,98.26,32.9,0.22,0.329
03:36:40,2.5060,0.0876,7.3221,2.8165,98.38,98.34,32.8,0.22,0.328
03:38:20,2.5060,0.0867,7.3282,2.8190,98.47,98.43,33.0,0.22,0.33
03:40:00,2.5060,0.0849,7.3341,2.8213,98.55,98.51,32.1,0.21,0.321
03:41:40,2.5040,0.0833,7.3400,2.8237,98.62,98.59,31.5,0.21,0.315
03:43:20,2.5030,0.0810,7.3457,2.8260,98.70,98.67,29.3,0.2,0.293
03:45:00,2.5050,0.0810,7.3513,2.8282,98.78,98.75,28.9,0.2,0.289
03:46:40,2.5060,0.0824,7.3570,2.8305,98.85,98.83,30.0,0.21,0.3
03:48:20,2.5110,0.0912,7.3631,2.8329,98.93,98.91,33.1,0.23,0.331
03:50:00,2.5200,0.1110,7.3699,2.8356,99.03,99.01,40.8,0.28,0.408
03:51:40,2.5860,0.3346,7.3887,2.8429,99.28,99.26,147.8,0.87,1.478
03:53:20,2.5710,0.3297,7.4124,2.8521,99.60,99.58,145.1,0.85,1.451
03:55:00,2.5020,0.1204,7.4232,2.8564,99.74,99.73,45.7,0.3,0.457
03:56:40,2.4960,0.1024,7.4306,2.8593,99.84,99.84,37.3,0.26,0.373
03:58:20,2.4970,0.0994,7.4376,2.8621,99.94,99.93,36.1,0.25,0.361
03:59:40,2.4980,0.0976,7.4431,2.8643,100.01,100.01,35.6,0.24,0.356