File: output/5/renogy-1.csv
Time,Voltage(V),Current(A),Energy(Wh),Capacity(Ah),Energy Proportion(%),Capacity Proportion(%),Irradiance(W/m2),Power(W),Sunlight Level
00:00:00,2.7030,0.3401,0.0026,0.0009,0.08,0.08,163.9,0.92,1.639
00:00:40,2.7030,0.3841,0.0137,0.0051,0.44,0.42,187.8,1.04,1.878
00:01:20,2.6930,0.3881,0.0253,0.0094,0.81,0.78,189.7,1.05,1.897
00:02:00,2.6860,0.4002,0.0371,0.0138,1.19,1.15,195.4,1.07,1.954
00:02:40,2.6880,0.4482,0.0497,0.0185,1.59,1.54,216.0,1.2,2.16
00:03:20,2.7540,0.8199,0.0730,0.0269,2.34,2.25,408.0,2.26,4.08
00:04:00,2.7090,0.6973,0.0958,0.0353,3.07,2.95,361.0,1.89,3.61
00:04:40,2.6720,0.5835,0.1135,0.0419,3.64,3.50,287.0,1.56,2.87
00:05:20,2.6370,0.4679,0.1287,0.0476,4.12,3.98,227.0,1.23,2.27
00:06:00,2.6420,0.5117,0.1430,0.0530,4.58,4.43,250.0,1.35,2.5
00:06:40,2.6550,0.6030,0.1610,0.0598,5.16,4.99,321.0,1.6,3.21
00:07:20,2.6240,0.5029,0.1760,0.0655,5.64,5.47,246.0,1.32,2.46
00:08:00,2.6430,0.6032,0.1916,0.0714,6.14,5.97,281.0,1.59,2.81
00:08:40,2.6810,0.6276,0.2140,0.0798,6.86,6.66,302.0,1.68,3.02
00:09:20,2.7380,0.8489,0.2350,0.0875,7.53,7.31,396.0,2.32,3.96
00:10:00,2.7390,0.9091,0.2645,0.0983,8.48,8.21,469.0,2.49,4.69
00:10:40,2.6220,0.5501,0.2853,0.1060,9.14,8.85,284.0,1.44,2.84
00:11:20,2.6110,0.4984,0.2998,0.1116,9.61,9.32,241.0,1.3,2.41
00:12:00,2.6050,0.4917,0.3144,0.1172,10.07,9.78,239.0,1.28,2.39
00:12:40,2.6640,0.6856,0.3308,0.1234,10.60,10.31,316.0,1.83,3.16
00:13:20,2.6580,0.6777,0.3527,0.1316,11.30,10.99,330.0,1.8,3.3
00:14:00,2.6230,0.5587,0.3715,0.1387,11.90,11.58,284.0,1.47,2.84
00:14:40,2.6110,0.5205,0.3871,0.1447,12.40,12.08,258.0,1.36,2.58
00:15:20,2.6010,0.4987,0.4031,0.1508,12.92,12.59,267.0,1.3,2.67
00:16:00,2.5810,0.4481,0.4161,0.1558,13.33,13.01,214.0,1.16,2.14
00:16:40,2.5830,0.4522,0.4290,0.1608,13.75,13.43,215.0,1.17,2.15
00:17:20,2.6000,0.4835,0.4425,0.1660,14.18,13.86,230.0,1.26,2.3
00:18:00,2.6780,0.7914,0.4643,0.1742,14.88,14.55,382.0,2.12,3.82
00:18:40,2.5930,0.5090,0.4818,0.1809,15.44,15.10,244.0,1.32,2.44
00:19:20,2.5920,0.5041,0.4964,0.1865,15.91,15.57,240.0,1.31,2.4
00:20:00,2.5970,0.5259,0.5112,0.1922,16.38,16.05,248.0,1.37,2.48
00:20:40,2.6240,0.6617,0.5289,0.1990,16.95,16.62,316.0,1.74,3.16
00:21:20,2.7350,1.1758,0.5605,0.2106,17.96,17.59,594.0,3.22,5.94
00:22:00,2.7140,1.1816,0.5966,0.2238,19.12,18.69,605.0,3.21,6.05
00:22:40,2.6300,0.8546,0.6277,0.2354,20.11,19.66,430.0,2.25,4.3
00:23:20,2.5480,0.5647,0.6458,0.2425,20.69,20.25,268.0,1.44,2.68
00:24:00,2.5470,0.5442,0.6613,0.2485,21.19,20.76,257.0,1.39,2.57
00:24:40,2.5720,0.6110,0.6783,0.2552,21.73,21.31,293.0,1.57,2.93
00:25:20,2.5780,0.6480,0.6951,0.2617,22.27,21.86,293.0,1.67,2.93
00:26:00,2.5980,0.6768,0.7149,0.2693,22.90,22.49,327.0,1.76,3.27
00:26:40,2.5970,0.6830,0.7338,0.2766,23.51,23.10,323.0,1.77,3.23
00:27:20,2.5840,0.6222,0.7520,0.2837,24.10,23.69,299.0,1.61,2.99
00:28:00,2.6070,0.7143,0.7703,0.2907,24.68,24.28,313.0,1.86,3.13
00:28:40,2.7240,1.2435,0.8037,0.3031,25.75,25.32,632.0,3.39,6.32
00:29:20,2.6140,0.8796,0.8329,0.3141,26.69,26.23,445.0,2.3,4.45
00:30:00,2.5420,0.5707,0.8509,0.3211,27.26,26.82,269.0,1.45,2.69
00:30:40,2.5530,0.6015,0.8673,0.3276,27.79,27.36,276.0,1.54,2.76
00:31:20,2.6080,0.8363,0.8870,0.3352,28.42,28.00,358.0,2.18,3.58
00:32:00,2.7060,1.2608,0.9198,0.3475,29.47,29.02,683.0,3.41,6.83
00:32:40,2.6920,1.2842,0.9586,0.3618,30.71,30.22,670.0,3.46,6.7
00:33:20,2.5550,0.7452,0.9906,0.3739,31.74,31.23,420.0,1.9,4.2
00:34:00,2.6540,1.1745,1.0142,0.3831,32.50,31.99,529.0,3.12,5.29
00:34:40,2.6770,1.2877,1.0527,0.3974,33.73,33.19,671.0,3.45,6.71
00:35:20,2.6610,1.2954,1.0910,0.4118,34.96,34.39,673.0,3.45,6.73
00:36:00,2.6500,1.3032,1.1294,0.4263,36.19,35.60,679.0,3.45,6.79
00:36:40,2.5330,0.8743,1.1588,0.4376,37.13,36.55,416.0,2.21,4.16
00:37:20,2.6210,1.2084,1.1947,0.4513,38.28,37.69,657.0,3.17,6.57
00:38:00,2.5470,0.8795,1.2185,0.4607,39.04,38.48,404.0,2.24,4.04
00:38:40,2.6280,1.3074,1.2566,0.4752,40.26,39.68,679.0,3.44,6.79
00:39:20,2.6360,1.3153,1.2949,0.4898,41.49,40.90,685.0,3.47,6.85
00:40:00,2.6230,1.3264,1.3334,0.5044,42.72,42.12,686.0,3.48,6.86
00:40:40,2.5700,1.1332,1.3692,0.5182,43.87,43.28,566.0,2.91,5.66
00:41:20,2.5160,0.8832,1.3959,0.5287,44.73,44.16,419.0,2.22,4.19
00:42:00,2.5810,1.1659,1.4225,0.5392,45.58,45.03,527.0,3.01,5.27
00:42:40,2.5330,0.9761,1.4539,0.5514,46.58,46.05,462.0,2.47,4.62
00:43:20,2.5010,0.7829,1.4751,0.5600,47.27,46.77,373.0,1.96,3.73
00:44:00,2.5120,0.8029,1.4980,0.5691,48.00,47.52,389.0,2.02,3.89
00:44:40,2.5130,0.7813,1.5192,0.5775,48.68,48.23,372.0,1.96,3.72
00:45:20,2.5150,0.7610,1.5395,0.5856,49.33,48.91,354.0,1.91,3.54
00:46:00,2.4770,0.6208,1.5573,0.5928,49.90,49.51,289.0,1.54,2.89
00:46:40,2.5200,0.7455,1.5755,0.6001,50.48,50.12,325.0,1.88,3.25
00:47:20,2.5380,0.8332,1.5983,0.6091,51.21,50.87,386.0,2.11,3.86
00:48:00,2.6320,1.1647,1.6251,0.6195,52.07,51.74,576.0,3.07,5.76
00:48:40,2.6780,1.4050,1.6580,0.6321,53.12,52.79,714.0,3.76,7.14
00:49:20,2.6460,1.3738,1.6998,0.6477,54.46,54.09,792.0,3.64,7.92
00:50:00,2.5570,1.0389,1.7360,0.6615,55.62,55.25,611.0,2.66,6.11
00:50:40,2.5150,0.8489,1.7601,0.6711,56.39,56.05,456.0,2.13,4.56
00:51:20,2.4950,0.7523,1.7840,0.6806,57.16,56.84,406.0,1.88,4.06
00:52:00,2.5100,0.7723,1.8041,0.6887,57.81,57.52,407.0,1.94,4.07
00:52:40,2.5060,0.7174,1.8243,0.6968,58.45,58.19,372.0,1.8,3.72
00:53:20,2.4800,0.6401,1.8430,0.7042,59.05,58.81,330.0,1.59,3.3
00:54:00,2.4830,0.6164,1.8603,0.7112,59.61,59.40,319.0,1.53,3.19
00:54:40,2.4950,0.6291,1.8774,0.7181,60.15,59.97,305.0,1.57,3.05
00:55:20,2.4980,0.6130,1.8945,0.7250,60.70,60.54,297.0,1.53,2.97
00:56:00,2.4990,0.5987,1.9113,0.7317,61.24,61.10,290.0,1.5,2.9
00:56:40,2.5070,0.5841,1.9278,0.7382,61.77,61.65,283.0,1.46,2.83
00:57:20,2.5080,0.5716,1.9438,0.7446,62.28,62.19,278.0,1.43,2.78
00:58:00,2.5110,0.5631,1.9595,0.7509,62.79,62.71,273.0,1.41,2.73
00:58:40,2.5180,0.5594,1.9752,0.7571,63.29,63.23,272.0,1.41,2.72
00:59:20,2.5260,0.5606,1.9909,0.7634,63.79,63.75,272.0,1.42,2.72
01:00:00,2.5390,0.5653,2.0068,0.7696,64.30,64.27,273.0,1.44,2.73
01:00:40,2.5400,0.5705,2.0228,0.7759,64.81,64.80,278.0,1.45,2.78
01:01:20,2.5460,0.5786,2.0391,0.7823,65.33,65.34,280.0,1.47,2.8
01:02:00,2.5530,0.5926,2.0556,0.7888,65.87,65.88,285.0,1.51,2.85
01:02:40,2.5430,0.6009,2.0725,0.7954,66.41,66.43,292.0,1.53,2.92
01:03:20,2.5510,0.6096,2.0897,0.8022,66.96,66.99,297.0,1.56,2.97
01:04:00,2.5520,0.6108,2.1070,0.8090,67.51,67.56,297.0,1.56,2.97
01:04:40,2.5550,0.6143,2.1244,0.8158,68.07,68.13,298.0,1.57,2.98
01:05:20,2.5600,0.6238,2.1420,0.8227,68.63,68.70,303.0,1.6,3.03
01:06:00,2.5610,0.6352,2.1600,0.8297,69.21,69.29,308.0,1.63,3.08
01:06:40,2.5640,0.6464,2.1783,0.8368,69.79,69.89,311.0,1.66,3.11
01:07:20,2.5670,0.6661,2.1970,0.8441,70.39,70.50,322.0,1.71,3.22
01:08:00,2.5630,0.6433,2.2157,0.8514,70.99,71.11,309.0,1.65,3.09
01:08:40,2.5580,0.6282,2.2337,0.8584,71.57,71.69,302.0,1.61,3.02
01:09:20,2.5640,0.6577,2.2518,0.8655,72.15,72.28,312.0,1.69,3.12
01:10:00,2.5720,0.7080,2.2730,0.8737,72.83,72.97,378.0,1.82,3.78
01:10:40,2.5500,0.6203,2.2912,0.8808,73.41,73.56,299.0,1.58,2.99
01:11:20,2.5590,0.6635,2.3094,0.8879,73.99,74.16,312.0,1.7,3.12
01:12:00,2.5900,0.7968,2.3309,0.8963,74.68,74.85,382.0,2.06,3.82
01:12:40,2.5530,0.6691,2.3503,0.9039,75.31,75.49,319.0,1.71,3.19
01:13:20,2.5490,0.6541,2.3693,0.9113,75.92,76.11,315.0,1.67,3.15
01:14:00,2.5610,0.6724,2.3882,0.9187,76.52,76.72,322.0,1.72,3.22
01:14:40,2.5740,0.6848,2.4077,0.9263,77.14,77.36,330.0,1.76,3.3
01:15:20,2.5800,0.6985,2.4275,0.9340,77.78,78.00,337.0,1.8,3.37
01:16:00,2.5840,0.7185,2.4479,0.9419,78.43,78.66,348.0,1.86,3.48
01:16:40,2.5900,0.7413,2.4690,0.9500,79.11,79.34,359.0,1.92,3.59
01:17:20,2.5900,0.7505,2.4905,0.9583,79.80,80.04,364.0,1.94,3.64
01:18:00,2.5940,0.7654,2.5125,0.9668,80.50,80.74,372.0,1.99,3.72
01:18:40,2.6070,0.8403,2.5357,0.9757,81.25,81.49,407.0,2.19,4.07
01:19:20,2.6510,1.0052,2.5623,0.9859,82.10,82.33,493.0,2.66,4.93
01:20:00,2.6380,0.9994,2.5923,0.9972,83.06,83.28,486.0,2.64,4.86
01:20:40,2.6630,1.1694,2.6246,1.0094,84.10,84.30,594.0,3.11,5.94
01:21:20,2.5630,0.7521,2.6516,1.0197,84.96,85.16,372.0,1.93,3.72
01:22:00,2.5590,0.7259,2.6730,1.0281,85.65,85.86,356.0,1.86,3.56
01:22:40,2.5600,0.7004,2.6931,1.0359,86.29,86.51,342.0,1.79,3.42
01:23:20,2.5660,0.6915,2.7129,1.0436,86.92,87.16,337.0,1.77,3.37
01:24:00,2.5730,0.6987,2.7327,1.0513,87.56,87.80,340.0,1.8,3.4
01:24:40,2.5940,0.7339,2.7533,1.0593,88.22,88.47,354.0,1.9,3.54
01:25:20,2.6170,0.8729,2.7775,1.0686,88.99,89.24,429.0,2.28,4.29
01:26:00,2.6500,1.0616,2.8087,1.0803,89.99,90.22,532.0,2.81,5.32
01:26:40,2.7090,1.3489,2.8487,1.0951,91.27,91.46,755.0,3.65,7.55
01:27:20,2.7910,1.5189,2.8904,1.1104,92.61,92.73,833.0,4.24,8.33
01:28:00,2.6550,1.3319,2.9361,1.1268,94.08,94.11,791.0,3.54,7.91
01:28:40,2.6560,1.3851,2.9770,1.1422,95.39,95.39,803.0,3.68,8.03
01:29:20,2.7350,1.4707,3.0213,1.1585,96.81,96.75,865.0,4.02,8.65
01:30:00,2.5750,1.1302,3.0588,1.1727,98.01,97.94,655.0,2.91,6.55
01:30:40,2.5300,0.9345,3.0875,1.1840,98.93,98.88,525.0,2.36,5.25
01:31:20,2.4880,0.7943,3.1102,1.1931,99.65,99.64,426.0,1.98,4.26
01:31:50,2.4740,0.6923,3.1257,1.1993,100.15,100.16,382.0,1.71,3.82