File: output/5/rynotuff-1.csv
Time,Voltage(V),Current(A),Energy(Wh),Capacity(Ah),Energy Proportion(%),Capacity Proportion(%),Irradiance(W/m2),Power(W),Power Score,Watts/oz,cW/oz,Sun Score,Irradiance/100,Efficiency(%)
00:00:00,3.9020,1.0182,0.0110,0.0028,0.08,0.09,338.0,3.97,33.1,0.24,2.4,33.8,3.38,0.98
00:01:00,3.9410,1.1459,0.0805,0.0209,0.59,0.68,406.0,4.52,37.7,0.27,2.7,40.6,4.06,0.93
00:02:00,3.8530,1.2685,0.1204,0.0309,0.88,1.02,452.0,4.89,40.8,0.29,2.9,45.2,4.52,0.9
00:03:00,4.9760,1.9885,0.2107,0.0555,1.55,1.82,649.0,9.89,82.4,0.59,5.9,64.9,6.49,1.27
00:04:00,2.8880,1.5766,0.3213,0.0856,2.36,2.81,531.0,4.55,37.9,0.27,2.7,53.1,5.31,0.71
00:05:00,4.9700,2.0023,0.4390,0.1123,3.23,3.69,798.0,9.95,82.9,0.6,6.0,79.8,7.98,1.04
00:06:00,3.4670,1.8327,0.5821,0.1450,4.28,4.76,624.0,6.35,52.9,0.38,3.8,62.4,6.24,0.85
00:07:00,2.8550,1.3588,0.6289,0.1604,4.62,5.27,431.0,3.88,32.3,0.23,2.3,43.1,4.31,0.75
00:08:00,2.8280,1.2857,0.6969,0.1842,5.12,6.05,429.0,3.64,30.3,0.22,2.2,42.9,4.29,0.71
00:09:00,2.7630,0.7871,0.7230,0.1931,5.31,6.34,348.0,2.17,18.1,0.13,1.3,34.8,3.48,0.52
00:10:00,2.5830,0.7712,0.7572,0.2061,5.56,6.76,349.0,1.99,16.6,0.12,1.2,34.9,3.49,0.48
00:11:00,2.9590,0.9373,0.7946,0.2200,5.84,7.22,407.0,2.77,23.1,0.17,1.7,40.7,4.07,0.57
00:12:00,3.1390,0.7957,0.8475,0.2352,6.23,7.72,335.0,2.5,20.8,0.15,1.5,33.5,3.35,0.62
00:13:00,2.7660,0.7563,0.8840,0.2480,6.49,8.14,318.0,2.09,17.4,0.13,1.3,31.8,3.18,0.55
00:14:00,3.7330,0.8904,0.9306,0.2617,6.84,8.59,317.0,3.32,27.7,0.2,2.0,31.7,3.17,0.87
00:15:00,3.7300,0.9078,0.9866,0.2767,7.25,9.08,324.0,3.39,28.3,0.2,2.0,32.4,3.24,0.87
00:16:00,3.7370,0.9638,1.0434,0.2920,7.67,9.58,340.0,3.6,30.0,0.22,2.2,34.0,3.4,0.88
00:17:00,3.6160,1.8596,1.0934,0.3056,8.03,10.03,562.0,6.72,56.0,0.4,4.0,56.2,5.62,1.0
00:18:00,2.7480,1.4461,1.1752,0.3294,8.63,10.81,432.0,3.97,33.1,0.24,2.4,43.2,4.32,0.77
00:19:00,2.8490,1.5504,1.2248,0.3457,9.00,11.35,460.0,4.42,36.8,0.27,2.7,46.0,4.6,0.8
00:20:00,4.9680,1.9991,1.3899,0.3791,10.21,12.44,811.0,9.93,82.8,0.6,6.0,81.1,8.11,1.02
00:21:00,2.8660,0.8665,1.4431,0.3970,10.60,13.03,388.0,2.48,20.7,0.15,1.5,38.8,3.88,0.53
00:22:00,2.7000,0.8160,1.4805,0.4107,10.88,13.48,361.0,2.2,18.3,0.13,1.3,36.1,3.61,0.51
00:23:00,3.6860,1.0220,1.5331,0.4262,11.26,13.99,364.0,3.77,31.4,0.23,2.3,36.4,3.64,0.86
00:24:00,3.4800,0.9538,1.5910,0.4424,11.69,14.52,381.0,3.32,27.7,0.2,2.0,38.1,3.81,0.73
00:25:00,3.6820,1.1732,1.6592,0.4610,12.19,15.13,419.0,4.32,36.0,0.26,2.6,41.9,4.19,0.86
00:26:00,4.9670,1.9994,1.8054,0.4933,13.26,16.19,1053.0,9.93,82.8,0.6,6.0,105.3,10.53,0.79
00:27:00,4.9640,2.0013,1.9709,0.5267,14.48,17.29,1045.0,9.93,82.8,0.6,6.0,104.5,10.45,0.79
00:28:00,4.9610,2.0003,2.1364,0.5600,15.69,18.38,1012.0,9.92,82.7,0.6,6.0,101.2,10.12,0.82
00:29:00,4.9590,2.0005,2.3017,0.5934,16.91,19.47,899.0,9.92,82.7,0.6,6.0,89.9,8.99,0.92
00:30:00,4.9590,2.0003,2.4670,0.6267,18.12,20.57,989.0,9.92,82.7,0.6,6.0,98.9,9.89,0.84
00:31:00,4.9600,2.0004,2.6324,0.6600,19.34,21.66,994.0,9.92,82.7,0.6,6.0,99.4,9.94,0.83
00:32:00,4.9580,1.9995,2.7977,0.6934,20.55,22.76,1008.0,9.91,82.6,0.6,6.0,100.8,10.08,0.82
00:33:00,0.2730,0.0000,2.9238,0.7211,21.48,23.67,772.0,0.0,0.0,0.0,0.0,77.2,7.72,0.0
00:34:00,4.9570,2.0003,3.0891,0.7545,22.69,24.76,952.0,9.92,82.7,0.6,6.0,95.2,9.52,0.87
00:35:00,4.9590,2.0000,3.2312,0.7872,23.74,25.84,726.0,9.92,82.7,0.6,6.0,72.6,7.26,1.14
00:36:00,4.8990,2.0013,3.3962,0.8206,24.95,26.93,792.0,9.8,81.7,0.59,5.9,79.2,7.92,1.03
00:37:00,3.0410,1.6161,3.4931,0.8497,25.66,27.89,520.0,4.91,40.9,0.3,3.0,52.0,5.2,0.79
00:38:00,3.2560,0.0076,3.5891,0.8714,26.37,28.60,405.0,0.02,0.2,0.0,0.0,40.5,4.05,0.0
00:39:00,2.6400,0.7562,3.6251,0.8842,26.63,29.02,334.0,2.0,16.7,0.12,1.2,33.4,3.34,0.5
00:40:00,2.5720,0.7412,3.6598,0.8974,26.89,29.45,324.0,1.91,15.9,0.11,1.1,32.4,3.24,0.49
00:41:00,2.7960,1.5123,3.7048,0.9125,27.22,29.95,455.0,4.23,35.3,0.25,2.5,45.5,4.55,0.77
00:42:00,4.9630,2.0001,3.8366,0.9403,28.19,30.86,944.0,9.93,82.8,0.6,6.0,94.4,9.44,0.88
00:43:00,3.2640,1.7130,3.9901,0.9728,29.31,31.93,586.0,5.59,46.6,0.34,3.4,58.6,5.86,0.79
00:44:00,3.2480,1.7239,4.1326,1.0047,30.36,32.98,714.0,5.6,46.7,0.34,3.4,71.4,7.14,0.65
00:45:00,2.8950,1.5847,4.1792,1.0204,30.70,33.49,465.0,4.59,38.3,0.28,2.8,46.5,4.65,0.82
00:46:00,3.3710,1.7660,4.2587,1.0444,31.29,34.28,555.0,5.95,49.6,0.36,3.6,55.5,5.55,0.89
00:47:00,4.9640,2.0011,4.4150,1.0773,32.44,35.36,874.0,9.93,82.8,0.6,6.0,87.4,8.74,0.95
00:48:00,4.9620,2.0006,4.5805,1.1107,33.65,36.45,861.0,9.93,82.8,0.6,6.0,86.1,8.61,0.96
00:49:00,4.9610,2.0005,4.7442,1.1440,34.85,37.55,817.0,9.92,82.7,0.6,6.0,81.7,8.17,1.01
00:50:00,4.9600,2.0011,4.9097,1.1774,36.07,38.64,845.0,9.93,82.8,0.6,6.0,84.5,8.45,0.98
00:51:00,4.9610,2.0009,5.0751,1.2107,37.28,39.74,837.0,9.93,82.8,0.6,6.0,83.7,8.37,0.99
00:52:00,4.9610,2.0004,5.2405,1.2441,38.50,40.83,836.0,9.92,82.7,0.6,6.0,83.6,8.36,0.99
00:53:00,4.9610,2.0010,5.4060,1.2774,39.72,41.93,848.0,9.93,82.8,0.6,6.0,84.8,8.48,0.98
00:54:00,4.9600,2.0006,5.5714,1.3108,40.93,43.02,851.0,9.92,82.7,0.6,6.0,85.1,8.51,0.97
00:55:00,4.9580,1.9996,5.7367,1.3441,42.15,44.12,887.0,9.91,82.6,0.6,6.0,88.7,8.87,0.93
00:56:00,4.9590,1.9999,5.9020,1.3774,43.36,45.21,852.0,9.92,82.7,0.6,6.0,85.2,8.52,0.97
00:57:00,4.8990,2.0005,6.0402,1.4097,44.37,46.27,723.0,9.8,81.7,0.59,5.9,72.3,7.23,1.13
00:58:00,2.7870,1.4781,6.1331,1.4375,45.06,47.18,462.0,4.12,34.3,0.25,2.5,46.2,4.62,0.74
00:59:00,0.3030,0.0000,6.2172,1.4618,45.68,47.98,740.0,0.0,0.0,0.0,0.0,74.0,7.4,0.0
01:00:00,4.9610,2.0001,6.3825,1.4951,46.89,49.07,812.0,9.92,82.7,0.6,6.0,81.2,8.12,1.02
01:01:00,4.9600,1.9998,6.5479,1.5285,48.10,50.17,811.0,9.92,82.7,0.6,6.0,81.1,8.11,1.02
01:02:00,4.9590,1.9994,6.7132,1.5618,49.32,51.26,808.0,9.92,82.7,0.6,6.0,80.8,8.08,1.02
01:03:00,4.9600,1.9992,6.8784,1.5951,50.53,52.35,802.0,9.92,82.7,0.6,6.0,80.2,8.02,1.03
01:04:00,4.9610,1.9995,7.0437,1.6284,51.75,53.45,807.0,9.92,82.7,0.6,6.0,80.7,8.07,1.02
01:05:00,4.9610,1.9989,7.2090,1.6618,52.96,54.54,815.0,9.92,82.7,0.6,6.0,81.5,8.15,1.01
01:06:00,4.9600,1.9989,7.3743,1.6951,54.18,55.64,818.0,9.91,82.6,0.6,6.0,81.8,8.18,1.01
01:07:00,4.9600,1.9991,7.5396,1.7284,55.39,56.73,813.0,9.92,82.7,0.6,6.0,81.3,8.13,1.02
01:08:00,4.9600,2.0004,7.7049,1.7618,56.61,57.82,802.0,9.92,82.7,0.6,6.0,80.2,8.02,1.03
01:09:00,4.9580,2.0003,7.8703,1.7951,57.82,58.92,807.0,9.92,82.7,0.6,6.0,80.7,8.07,1.02
01:10:00,4.9580,2.0005,8.0356,1.8284,59.03,60.01,814.0,9.92,82.7,0.6,6.0,81.4,8.14,1.02
01:11:00,4.9590,2.0011,8.2009,1.8618,60.25,61.11,813.0,9.92,82.7,0.6,6.0,81.3,8.13,1.02
01:12:00,4.9600,2.0001,8.3663,1.8951,61.46,62.20,800.0,9.92,82.7,0.6,6.0,80.0,8.0,1.03
01:13:00,4.9590,2.0002,8.5316,1.9284,62.68,63.30,814.0,9.92,82.7,0.6,6.0,81.4,8.14,1.02
01:14:00,4.9590,2.0004,8.6969,1.9618,63.89,64.39,815.0,9.92,82.7,0.6,6.0,81.5,8.15,1.01
01:15:00,4.9600,2.0006,8.8622,1.9951,65.11,65.48,820.0,9.92,82.7,0.6,6.0,82.0,8.2,1.01
01:16:00,4.9610,2.0004,9.0276,2.0284,66.32,66.58,818.0,9.92,82.7,0.6,6.0,81.8,8.18,1.01
01:17:00,4.9590,1.9999,9.1929,2.0618,67.54,67.67,811.0,9.92,82.7,0.6,6.0,81.1,8.11,1.02
01:18:00,4.9580,1.9997,9.3581,2.0951,68.75,68.77,815.0,9.91,82.6,0.6,6.0,81.5,8.15,1.01
01:19:00,4.9590,1.9998,9.5234,2.1284,69.96,69.86,815.0,9.92,82.7,0.6,6.0,81.5,8.15,1.01
01:20:00,4.9590,1.9995,9.6887,2.1618,71.18,70.95,815.0,9.92,82.7,0.6,6.0,81.5,8.15,1.01
01:21:00,4.9570,1.9994,9.8539,2.1951,72.39,72.05,819.0,9.91,82.6,0.6,6.0,81.9,8.19,1.01
01:22:00,4.9580,1.9994,10.0191,2.2284,73.61,73.14,815.0,9.91,82.6,0.6,6.0,81.5,8.15,1.01
01:23:00,4.9600,1.9996,10.1843,2.2617,74.82,74.23,822.0,9.92,82.7,0.6,6.0,82.2,8.22,1.01
01:24:00,4.9590,1.9996,10.3496,2.2951,76.03,75.33,822.0,9.92,82.7,0.6,6.0,82.2,8.22,1.01
01:25:00,4.9590,1.9994,10.5148,2.3284,77.25,76.42,825.0,9.92,82.7,0.6,6.0,82.5,8.25,1.0
01:26:00,4.9580,1.9997,10.6801,2.3617,78.46,77.52,830.0,9.91,82.6,0.6,6.0,83.0,8.3,0.99
01:27:00,4.9580,1.9991,10.8453,2.3950,79.68,78.61,829.0,9.91,82.6,0.6,6.0,82.9,8.29,1.0
01:28:00,4.9590,1.9993,11.0105,2.4283,80.89,79.70,834.0,9.91,82.6,0.6,6.0,83.4,8.34,0.99
01:29:00,4.9570,1.9986,11.1757,2.4617,82.10,80.80,840.0,9.91,82.6,0.6,6.0,84.0,8.4,0.98
01:30:00,4.9570,1.9984,11.3409,2.4950,83.32,81.89,824.0,9.91,82.6,0.6,6.0,82.4,8.24,1.0
01:31:00,4.9570,1.9989,11.5060,2.5283,84.53,82.98,813.0,9.91,82.6,0.6,6.0,81.3,8.13,1.02
01:32:00,4.9580,1.9993,11.6712,2.5616,85.74,84.08,778.0,9.91,82.6,0.6,6.0,77.8,7.78,1.06
01:33:00,4.9570,1.9994,11.8364,2.5949,86.96,85.17,797.0,9.91,82.6,0.6,6.0,79.7,7.97,1.04
01:34:00,4.9570,1.9992,12.0016,2.6283,88.17,86.26,792.0,9.91,82.6,0.6,6.0,79.2,7.92,1.04
01:35:00,4.7540,1.9995,12.1651,2.6616,89.37,87.36,730.0,9.51,79.3,0.57,5.7,73.0,7.3,1.09
01:36:00,4.4360,1.9997,12.3016,2.6945,90.37,88.44,675.0,8.87,73.9,0.53,5.3,67.5,6.75,1.1
01:37:00,3.7220,1.9434,12.4177,2.7221,91.23,89.34,645.0,7.23,60.3,0.43,4.3,64.5,6.45,0.93
01:38:00,3.5310,1.8357,12.5286,2.7531,92.04,90.36,614.0,6.48,54.0,0.39,3.9,61.4,6.14,0.88
01:39:00,3.6530,1.9060,12.6378,2.7839,92.84,91.37,621.0,6.96,58.0,0.42,4.2,62.1,6.21,0.93
01:40:00,3.4440,1.7938,12.7668,2.8162,93.79,92.43,607.0,6.18,51.5,0.37,3.7,60.7,6.07,0.85
01:41:00,2.8310,1.5340,12.8544,2.8438,94.44,93.34,509.0,4.34,36.2,0.26,2.6,50.9,5.09,0.71
01:42:00,2.8020,1.4368,12.9308,2.8698,95.00,94.19,454.0,4.03,33.6,0.24,2.4,45.4,4.54,0.74
01:43:00,4.5890,1.9986,13.0555,2.9013,95.91,95.23,718.0,9.17,76.4,0.55,5.5,71.8,7.18,1.06
01:44:00,3.5060,1.8230,13.1704,2.9329,96.76,96.26,607.0,6.39,53.3,0.38,3.8,60.7,6.07,0.88
01:45:00,3.4120,1.7786,13.2680,2.9620,97.48,97.22,604.0,6.07,50.6,0.36,3.6,60.4,6.04,0.84
01:46:00,4.5700,1.9986,13.3919,2.9938,98.38,98.26,692.0,9.13,76.1,0.55,5.5,69.2,6.92,1.1
01:47:00,3.7610,1.9659,13.5447,3.0271,99.51,99.35,675.0,7.39,61.6,0.44,4.4,67.5,6.75,0.91
01:47:50,3.3860,1.7652,13.6283,3.0517,100.12,100.16,573.0,5.98,49.8,0.36,3.6,57.3,5.73,0.87