File: output/5/rynotuff-2.csv
Time,Voltage(V),Current(A),Energy(Wh),Capacity(Ah),Energy Proportion(%),Capacity Proportion(%),Irradiance(W/m2),Power(W),Power Score,Watts/oz,cW/oz,Sun Score,Irradiance/100,Efficiency(%)
00:00:00,4.9800,2.0030,0.0277,0.0056,0.28,0.20,687.0,9.97,83.1,0.6,6.0,68.7,6.87,1.21
00:01:30,3.5530,1.8497,0.1949,0.0460,2.00,1.62,638.0,6.57,54.8,0.39,3.9,63.8,6.38,0.86
00:03:00,4.6420,2.0006,0.4076,0.0955,4.18,3.37,628.0,9.29,77.4,0.56,5.6,62.8,6.28,1.23
00:04:30,3.8270,1.9880,0.6344,0.1454,6.50,5.13,646.0,7.61,63.4,0.46,4.6,64.6,6.46,0.98
00:06:00,3.7960,1.9745,0.8224,0.1948,8.42,6.87,633.0,7.5,62.5,0.45,4.5,63.3,6.33,0.99
00:07:30,3.8160,1.9873,1.0100,0.2442,10.34,8.61,634.0,7.58,63.2,0.46,4.6,63.4,6.34,1.0
00:09:00,3.6570,1.9102,1.1878,0.2923,12.17,10.31,608.0,6.99,58.3,0.42,4.2,60.8,6.08,0.96
00:10:30,3.5600,1.8523,1.3558,0.3391,13.89,11.96,591.0,6.59,54.9,0.4,4.0,59.1,5.91,0.93
00:12:00,3.5080,1.8246,1.5151,0.3847,15.52,13.56,579.0,6.4,53.3,0.38,3.8,57.9,5.79,0.92
00:13:30,3.5340,1.8421,1.6747,0.4302,17.15,15.17,586.0,6.51,54.3,0.39,3.9,58.6,5.86,0.93
00:15:00,3.6250,1.8871,1.8443,0.4772,18.89,16.83,602.0,6.84,57.0,0.41,4.1,60.2,6.02,0.95
00:16:30,3.6700,1.9103,2.0181,0.5248,20.67,18.50,612.0,7.01,58.4,0.42,4.2,61.2,6.12,0.95
00:18:00,2.3560,0.3551,2.0937,0.5508,21.44,19.42,125.7,0.84,7.0,0.05,0.5,12.6,1.257,0.56
00:19:30,2.3120,0.3431,2.1132,0.5592,21.64,19.72,119.2,0.79,6.6,0.05,0.5,11.9,1.192,0.55
00:21:00,3.6090,1.8730,2.2676,0.6021,23.23,21.23,600.0,6.76,56.3,0.41,4.1,60.0,6.0,0.94
00:22:30,3.6370,1.8880,2.4361,0.6489,24.95,22.88,604.0,6.87,57.3,0.41,4.1,60.4,6.04,0.95
00:24:00,3.6420,1.8926,2.6076,0.6961,26.71,24.54,604.0,6.89,57.4,0.41,4.1,60.4,6.04,0.95
00:25:30,3.6530,1.8993,2.7789,0.7433,28.46,26.21,608.0,6.94,57.8,0.42,4.2,60.8,6.08,0.95
00:27:00,3.6000,1.8695,2.9482,0.7902,30.20,27.86,598.0,6.73,56.1,0.4,4.0,59.8,5.98,0.94
00:28:30,3.4440,1.7945,3.1094,0.8361,31.85,29.48,569.0,6.18,51.5,0.37,3.7,56.9,5.69,0.91
00:30:00,3.1670,1.6639,3.2574,0.8800,33.36,31.03,530.0,5.27,43.9,0.32,3.2,53.0,5.3,0.83
00:31:30,3.3980,1.7746,3.3956,0.9225,34.78,32.53,561.0,6.03,50.3,0.36,3.6,56.1,5.61,0.9
00:33:00,3.2770,1.7084,3.5383,0.9657,36.24,34.05,541.0,5.6,46.7,0.34,3.4,54.1,5.41,0.86
00:34:30,3.3520,1.7580,3.6809,1.0089,37.70,35.57,558.0,5.89,49.1,0.35,3.5,55.8,5.58,0.88
00:36:00,3.0030,0.7989,3.8179,1.0500,39.10,37.02,447.0,2.4,20.0,0.14,1.4,44.7,4.47,0.45
00:37:30,3.5670,1.8535,3.9627,1.0922,40.59,38.51,591.0,6.61,55.1,0.4,4.0,59.1,5.91,0.93
00:39:00,3.5480,1.8434,4.1259,1.1383,42.26,40.14,587.0,6.54,54.5,0.39,3.9,58.7,5.87,0.93
00:40:30,3.5050,1.8251,4.2879,1.1842,43.92,41.76,581.0,6.4,53.3,0.38,3.8,58.1,5.81,0.92
00:42:00,3.2080,1.6833,4.4411,1.2290,45.49,43.33,539.0,5.4,45.0,0.32,3.2,53.9,5.39,0.83
00:43:30,2.2960,0.2725,4.5217,1.2544,46.31,44.23,92.0,0.63,5.3,0.04,0.4,9.2,0.92,0.57
00:45:00,2.3050,0.2817,4.5375,1.2613,46.47,44.47,94.0,0.65,5.4,0.04,0.4,9.4,0.94,0.58
00:46:30,3.2900,1.7226,4.5982,1.2813,47.10,45.18,549.0,5.67,47.3,0.34,3.4,54.9,5.49,0.86
00:48:00,3.2560,1.7047,4.7395,1.3243,48.54,46.70,541.0,5.55,46.3,0.33,3.3,54.1,5.41,0.85
00:49:30,3.2060,1.6826,4.8765,1.3666,49.95,48.19,530.0,5.39,44.9,0.32,3.2,53.0,5.3,0.85
00:51:00,3.1990,1.6764,5.0112,1.4086,51.33,49.67,531.0,5.36,44.7,0.32,3.2,53.1,5.31,0.84
00:52:30,3.1990,1.6754,5.1451,1.4505,52.70,51.15,525.0,5.36,44.7,0.32,3.2,52.5,5.25,0.85
00:54:00,3.1890,1.6714,5.2786,1.4923,54.07,52.62,525.0,5.33,44.4,0.32,3.2,52.5,5.25,0.85
00:55:30,3.1450,1.6552,5.4103,1.5339,55.41,54.09,520.0,5.21,43.4,0.31,3.1,52.0,5.2,0.83
00:57:00,2.9640,1.6207,5.5360,1.5747,56.70,55.53,508.0,4.8,40.0,0.29,2.9,50.8,5.08,0.79
00:58:30,2.9130,1.5912,5.6532,1.6148,57.90,56.94,501.0,4.64,38.7,0.28,2.8,50.1,5.01,0.77
01:00:00,2.9120,1.5901,5.7687,1.6545,59.09,58.34,499.0,4.63,38.6,0.28,2.8,49.9,4.99,0.77
01:01:30,2.9150,1.5875,5.8843,1.6942,60.27,59.74,498.0,4.63,38.6,0.28,2.8,49.8,4.98,0.77
01:03:00,2.8870,1.5742,5.9987,1.7337,61.44,61.13,495.0,4.54,37.8,0.27,2.7,49.5,4.95,0.76
01:04:30,2.8030,1.5290,6.1095,1.7725,62.58,62.50,479.0,4.29,35.8,0.26,2.6,47.9,4.79,0.75
01:06:00,2.7390,1.4921,6.2139,1.8103,63.65,63.83,468.0,4.09,34.1,0.25,2.5,46.8,4.68,0.73
01:07:30,3.5450,1.0495,6.2779,1.8285,64.30,64.47,422.0,3.72,31.0,0.22,2.2,42.2,4.22,0.73
01:09:00,2.7730,1.3933,6.3415,1.8506,64.95,65.25,434.0,3.86,32.2,0.23,2.3,43.4,4.34,0.74
01:10:30,2.8150,1.4471,6.4296,1.8806,65.85,66.31,453.0,4.07,33.9,0.24,2.4,45.3,4.53,0.75
01:12:00,2.8240,1.4542,6.5317,1.9168,66.90,67.59,455.0,4.11,34.3,0.25,2.5,45.5,4.55,0.75
01:13:30,2.8270,1.4447,6.6341,1.9531,67.95,68.87,452.0,4.08,34.0,0.25,2.5,45.2,4.52,0.75
01:15:00,2.8280,1.4397,6.7364,1.9892,69.00,70.14,451.0,4.07,33.9,0.24,2.4,45.1,4.51,0.75
01:16:30,2.8180,1.3981,6.8364,2.0247,70.02,71.39,435.0,3.94,32.8,0.24,2.4,43.5,4.35,0.75
01:18:00,2.8120,1.3704,6.9331,2.0591,71.01,72.60,428.0,3.85,32.1,0.23,2.3,42.8,4.28,0.75
01:19:30,2.8080,1.3427,6.9864,2.0780,71.56,73.27,419.0,3.77,31.4,0.23,2.3,41.9,4.19,0.75
01:21:00,3.7140,0.0051,7.0152,2.0873,71.85,73.60,409.0,0.02,0.2,0.0,0.0,40.9,4.09,0.0
01:22:30,5.3370,0.0091,7.0500,2.0989,72.21,74.01,390.0,0.05,0.4,0.0,0.0,39.0,3.9,0.01
01:24:00,2.7660,0.8968,7.1204,2.1219,72.93,74.82,390.0,2.48,20.7,0.15,1.5,39.0,3.9,0.53
01:25:30,3.3910,1.0049,7.2009,2.1467,73.75,75.70,407.0,3.41,28.4,0.2,2.0,40.7,4.07,0.7
01:27:00,5.3370,0.0092,7.2894,2.1716,74.66,76.57,415.0,0.05,0.4,0.0,0.0,41.5,4.15,0.01
01:28:30,5.3370,0.0091,7.3570,2.1895,75.35,77.20,415.0,0.05,0.4,0.0,0.0,41.5,4.15,0.01
01:30:00,3.6640,1.1725,7.4298,2.2093,76.10,77.90,411.0,4.3,35.8,0.26,2.6,41.1,4.11,0.87
01:31:30,3.6590,1.1562,7.4896,2.2256,76.71,78.48,409.0,4.23,35.3,0.25,2.5,40.9,4.09,0.86
01:33:00,3.6610,1.1177,7.5720,2.2480,77.56,79.27,394.0,4.09,34.1,0.25,2.5,39.4,3.94,0.87
01:34:30,3.6900,1.0812,7.6350,2.2646,78.20,79.85,379.0,3.99,33.3,0.24,2.4,37.9,3.79,0.88
01:36:00,3.6960,1.0950,7.7220,2.2875,79.09,80.66,378.0,4.05,33.8,0.24,2.4,37.8,3.78,0.89
01:37:30,5.3380,0.0091,7.7911,2.3052,79.80,81.28,372.0,0.05,0.4,0.0,0.0,37.2,3.72,0.01
01:39:00,5.3380,0.0091,7.8514,2.3211,80.42,81.84,373.0,0.05,0.4,0.0,0.0,37.3,3.73,0.01
01:40:30,2.6500,0.2113,7.9045,2.3371,80.96,82.41,58.3,0.56,4.7,0.03,0.3,5.8,0.583,0.8
01:42:00,3.8030,0.7682,7.9298,2.3440,81.22,82.65,204.0,2.92,24.3,0.18,1.8,20.4,2.04,1.19
01:43:30,3.7720,1.0265,8.0242,2.3689,82.19,83.53,356.0,3.87,32.3,0.23,2.3,35.6,3.56,0.91
01:45:00,3.7490,1.0081,8.0916,2.3861,82.88,84.14,355.0,3.78,31.5,0.23,2.3,35.5,3.55,0.89
01:46:30,3.7390,1.0095,8.1587,2.4030,83.56,84.73,356.0,3.77,31.4,0.23,2.3,35.6,3.56,0.88
01:48:00,3.9120,0.9967,8.2336,2.4228,84.33,85.43,354.0,3.9,32.5,0.23,2.3,35.4,3.54,0.92
01:49:30,2.2770,0.2668,8.2770,2.4353,84.78,85.87,79.4,0.61,5.1,0.04,0.4,7.9,0.794,0.64
01:51:00,3.7790,1.0010,8.3428,2.4539,85.45,86.53,355.0,3.78,31.5,0.23,2.3,35.5,3.55,0.89
01:52:30,3.7730,0.8562,8.4217,2.4754,86.26,87.28,316.0,3.23,26.9,0.19,1.9,31.6,3.16,0.85
01:54:00,3.6570,0.2413,8.4512,2.4833,86.56,87.56,72.1,0.88,7.3,0.05,0.5,7.2,0.721,1.02
01:55:30,3.7730,0.4148,8.4755,2.4899,86.81,87.80,111.0,1.57,13.1,0.09,0.9,11.1,1.11,1.18
01:57:00,3.8210,0.9382,8.5580,2.5114,87.65,88.55,330.0,3.58,29.8,0.22,2.2,33.0,3.3,0.9
01:58:30,3.7990,0.8859,8.6045,2.5232,88.13,88.97,315.0,3.37,28.1,0.2,2.0,31.5,3.15,0.89
02:00:00,3.7860,0.8693,8.6789,2.5428,88.89,89.66,304.0,3.29,27.4,0.2,2.0,30.4,3.04,0.9
02:01:30,3.7800,0.8700,8.7608,2.5645,89.73,90.43,302.0,3.29,27.4,0.2,2.0,30.2,3.02,0.91
02:03:00,2.4070,0.3129,8.8291,2.5829,90.43,91.07,169.0,0.75,6.3,0.05,0.5,16.9,1.69,0.37
02:04:30,2.4960,0.3236,8.8425,2.5887,90.57,91.28,68.5,0.81,6.8,0.05,0.5,6.9,0.685,0.99
02:06:00,2.8610,0.2689,8.8655,2.5966,90.80,91.56,68.8,0.77,6.4,0.05,0.5,6.9,0.688,0.93
02:07:30,2.8710,0.5558,8.9282,2.6139,91.45,92.17,221.0,1.6,13.3,0.1,1.0,22.1,2.21,0.6
02:09:00,3.8550,0.7349,8.9626,2.6254,91.80,92.57,233.0,2.83,23.6,0.17,1.7,23.3,2.33,1.01
02:10:30,3.6110,0.1795,9.0119,2.6383,92.30,93.03,55.1,0.65,5.4,0.04,0.4,5.5,0.551,0.98
02:12:00,3.5720,0.1490,9.0257,2.6422,92.45,93.16,40.9,0.53,4.4,0.03,0.3,4.1,0.409,1.08
02:13:30,3.5850,0.1455,9.0387,2.6458,92.58,93.29,39.7,0.52,4.3,0.03,0.3,4.0,0.397,1.09
02:15:00,3.9060,0.7404,9.0879,2.6585,93.08,93.74,260.0,2.89,24.1,0.17,1.7,26.0,2.6,0.93
02:16:30,3.8710,0.7295,9.1593,2.6769,93.81,94.39,256.0,2.82,23.5,0.17,1.7,25.6,2.56,0.92
02:18:00,3.8490,0.7036,9.2283,2.6948,94.52,95.02,248.0,2.71,22.6,0.16,1.6,24.8,2.48,0.91
02:19:30,3.8350,0.6874,9.2948,2.7121,95.20,95.63,241.0,2.64,22.0,0.16,1.6,24.1,2.41,0.91
02:21:00,3.8200,0.6803,9.3595,2.7291,95.86,96.23,235.0,2.6,21.7,0.16,1.6,23.5,2.35,0.92
02:22:30,3.8010,0.6600,9.4230,2.7457,96.51,96.82,232.0,2.51,20.9,0.15,1.5,23.2,2.32,0.9
02:24:00,3.7990,0.6447,9.4847,2.7620,97.15,97.39,227.0,2.45,20.4,0.15,1.5,22.7,2.27,0.9
02:25:30,3.7960,0.6154,9.5442,2.7777,97.76,97.94,217.0,2.34,19.5,0.14,1.4,21.7,2.17,0.9
02:27:00,3.7970,0.6035,9.6019,2.7929,98.35,98.48,211.0,2.29,19.1,0.14,1.4,21.1,2.11,0.9
02:28:30,3.7940,0.5768,9.6578,2.8076,98.92,99.00,204.0,2.19,18.3,0.13,1.3,20.4,2.04,0.89
02:30:00,3.7620,0.4105,9.7019,2.8193,99.37,99.41,133.1,1.54,12.8,0.09,0.9,13.3,1.331,0.96
02:31:30,3.6220,0.1842,9.7302,2.8269,99.66,99.68,53.0,0.67,5.6,0.04,0.4,5.3,0.53,1.05
02:33:00,3.5930,0.1548,9.7454,2.8311,99.82,99.83,43.7,0.56,4.7,0.03,0.3,4.4,0.437,1.07
02:34:30,3.6290,0.1658,9.7599,2.8351,99.96,99.97,48.2,0.6,5.0,0.04,0.4,4.8,0.482,1.04
02:35:00,3.7390,0.2430,9.7659,2.8367,100.03,100.02,58.7,0.91,7.6,0.05,0.5,5.9,0.587,1.29