File: output/5/solarcamp-1.csv
Time,Voltage(V),Current(A),Energy(Wh),Capacity(Ah),Energy Proportion(%),Capacity Proportion(%),Irradiance(W/m2),Power(W),Power Score,Watts/oz,cW/oz,Sun Score,Irradiance/100,Efficiency(%)
00:00:00,2.7040,0.6312,0.0047,0.0018,0.69,0.85,804.0,1.71,17.1,0.18,1.8,80.4,8.04,0.16
00:00:50,5.1450,0.0092,0.0100,0.0036,1.45,1.73,799.0,0.05,0.5,0.01,0.1,79.9,7.99,0.0
00:01:40,4.3680,0.3551,0.0148,0.0047,2.15,2.26,792.0,1.55,15.5,0.16,1.6,79.2,7.92,0.15
00:02:30,5.1460,0.0092,0.0227,0.0064,3.29,3.09,782.0,0.05,0.5,0.01,0.1,78.2,7.82,0.0
00:03:20,5.1470,0.0092,0.0264,0.0072,3.84,3.46,781.0,0.05,0.5,0.01,0.1,78.1,7.81,0.0
00:04:10,5.1470,0.0092,0.0271,0.0073,3.94,3.52,776.0,0.05,0.5,0.01,0.1,77.6,7.76,0.0
00:05:00,5.1480,0.0092,0.0334,0.0090,4.85,4.32,763.0,0.05,0.5,0.01,0.1,76.3,7.63,0.0
00:05:50,5.1490,0.0092,0.0376,0.0104,5.46,5.04,767.0,0.05,0.5,0.01,0.1,76.7,7.67,0.0
00:06:40,4.9060,0.0888,0.0429,0.0118,6.23,5.71,770.0,0.44,4.4,0.05,0.5,77.0,7.7,0.04
00:07:30,5.1490,0.0092,0.0477,0.0130,6.93,6.26,768.0,0.05,0.5,0.01,0.1,76.8,7.68,0.0
00:08:20,5.1490,0.0092,0.0524,0.0141,7.61,6.79,770.0,0.05,0.5,0.01,0.1,77.0,7.7,0.0
00:09:10,5.1490,0.0093,0.0531,0.0142,7.70,6.85,772.0,0.05,0.5,0.01,0.1,77.2,7.72,0.0
00:10:00,5.1490,0.0093,0.0607,0.0161,8.81,7.76,783.0,0.05,0.5,0.01,0.1,78.3,7.83,0.0
00:10:50,5.1500,0.0093,0.0636,0.0167,9.23,8.04,796.0,0.05,0.5,0.01,0.1,79.6,7.96,0.0
00:11:40,5.1490,0.0531,0.0699,0.0181,10.15,8.71,800.0,0.27,2.7,0.03,0.3,80.0,8.0,0.03
00:12:30,5.1500,0.0093,0.0766,0.0197,11.13,9.52,674.0,0.05,0.5,0.01,0.1,67.4,6.74,0.01
00:13:20,4.0830,0.2110,0.0796,0.0204,11.55,9.85,202.0,0.86,8.6,0.09,0.9,20.2,2.02,0.32
00:14:10,4.1980,0.2807,0.0917,0.0233,13.31,11.26,756.0,1.18,11.8,0.13,1.3,75.6,7.56,0.12
00:15:00,5.1500,0.0091,0.0939,0.0238,13.63,11.48,758.0,0.05,0.5,0.01,0.1,75.8,7.58,0.0
00:15:50,5.1500,0.0093,0.1027,0.0258,14.91,12.46,535.0,0.05,0.5,0.01,0.1,53.5,5.35,0.01
00:16:40,4.2370,0.1809,0.1083,0.0272,15.72,13.09,192.5,0.77,7.7,0.08,0.8,19.3,1.925,0.3
00:17:30,4.8450,0.1915,0.1189,0.0296,17.27,14.29,700.0,0.93,9.3,0.1,1.0,70.0,7.0,0.1
00:18:20,5.1500,0.0092,0.1197,0.0298,17.39,14.36,152.1,0.05,0.5,0.01,0.1,15.2,1.521,0.02
00:19:10,5.1500,0.0090,0.1204,0.0299,17.48,14.42,145.4,0.05,0.5,0.01,0.1,14.5,1.454,0.03
00:20:00,5.1500,0.0089,0.1261,0.0314,18.31,15.15,145.9,0.05,0.5,0.01,0.1,14.6,1.459,0.03
00:20:50,4.4500,0.2344,0.1337,0.0332,19.41,16.01,139.3,1.04,10.4,0.11,1.1,13.9,1.393,0.56
00:21:40,5.1500,0.0089,0.1343,0.0333,19.50,16.07,133.8,0.05,0.5,0.01,0.1,13.4,1.338,0.03
00:22:30,3.9250,0.3047,0.1407,0.0349,20.43,16.84,137.2,1.2,12.0,0.13,1.3,13.7,1.372,0.66
00:23:20,5.1500,0.0092,0.1413,0.0351,20.52,16.91,157.8,0.05,0.5,0.01,0.1,15.8,1.578,0.02
00:24:10,4.6660,0.1850,0.1507,0.0374,21.88,18.03,248.0,0.86,8.6,0.09,0.9,24.8,2.48,0.26
00:25:00,4.0830,0.2718,0.1543,0.0383,22.41,18.45,681.0,1.11,11.1,0.12,1.2,68.1,6.81,0.12
00:25:50,5.1500,0.0093,0.1646,0.0407,23.91,19.62,759.0,0.05,0.5,0.01,0.1,75.9,7.59,0.0
00:26:40,5.1500,0.0092,0.1653,0.0408,24.00,19.68,750.0,0.05,0.5,0.01,0.1,75.0,7.5,0.01
00:27:30,5.1500,0.0093,0.1660,0.0410,24.10,19.74,745.0,0.05,0.5,0.01,0.1,74.5,7.45,0.01
00:28:20,5.1500,0.0092,0.1702,0.0419,24.71,20.20,753.0,0.05,0.5,0.01,0.1,75.3,7.53,0.0
00:29:10,5.1500,0.0093,0.1708,0.0420,24.81,20.27,755.0,0.05,0.5,0.01,0.1,75.5,7.55,0.0
00:30:00,4.0600,0.4472,0.1868,0.0458,27.13,22.06,765.0,1.82,18.2,0.19,1.9,76.5,7.65,0.18
00:30:50,5.1500,0.0093,0.1925,0.0470,27.95,22.66,772.0,0.05,0.5,0.01,0.1,77.2,7.72,0.0
00:31:40,5.1500,0.0093,0.1931,0.0471,28.04,22.72,412.0,0.05,0.5,0.01,0.1,41.2,4.12,0.01
00:32:30,5.1500,0.0092,0.1938,0.0473,28.14,22.78,500.0,0.05,0.5,0.01,0.1,50.0,5.0,0.01
00:33:20,4.7160,0.2008,0.1973,0.0480,28.66,23.14,153.2,0.95,9.5,0.1,1.0,15.3,1.532,0.47
00:34:10,4.8650,0.0655,0.1987,0.0483,28.86,23.27,158.5,0.32,3.2,0.03,0.3,15.9,1.585,0.15
00:35:00,5.1500,0.0093,0.2050,0.0497,29.76,23.96,142.9,0.05,0.5,0.01,0.1,14.3,1.429,0.03
00:35:50,4.2970,0.2678,0.2110,0.0511,30.64,24.65,142.4,1.15,11.5,0.12,1.2,14.2,1.424,0.61
00:36:40,5.1500,0.0092,0.2152,0.0521,31.25,25.13,137.7,0.05,0.5,0.01,0.1,13.8,1.377,0.03
00:37:30,4.5530,0.1334,0.2174,0.0526,31.57,25.36,141.9,0.61,6.1,0.06,0.6,14.2,1.419,0.32
00:38:20,5.1510,0.0092,0.2242,0.0541,32.55,26.09,141.1,0.05,0.5,0.01,0.1,14.1,1.411,0.03
00:39:10,5.1510,0.0092,0.2248,0.0542,32.65,26.15,140.5,0.05,0.5,0.01,0.1,14.1,1.405,0.03
00:40:00,5.1500,0.0090,0.2334,0.0562,33.89,27.08,142.0,0.05,0.5,0.01,0.1,14.2,1.42,0.03
00:40:50,5.1510,0.0092,0.2378,0.0572,34.53,27.57,140.5,0.05,0.5,0.01,0.1,14.1,1.405,0.03
00:41:40,5.1510,0.0092,0.2406,0.0580,34.93,27.98,141.4,0.05,0.5,0.01,0.1,14.1,1.414,0.03
00:42:30,5.1510,0.0093,0.2436,0.0588,35.37,28.34,162.1,0.05,0.5,0.01,0.1,16.2,1.621,0.02
00:43:20,5.1510,0.0093,0.2460,0.0594,35.72,28.61,151.0,0.05,0.5,0.01,0.1,15.1,1.51,0.02
00:44:10,2.6010,0.3525,0.2518,0.0610,36.56,29.42,504.0,0.92,9.2,0.1,1.0,50.4,5.04,0.14
00:45:00,5.1510,0.0091,0.2535,0.0614,36.81,29.59,638.0,0.05,0.5,0.01,0.1,63.8,6.38,0.01
00:45:50,5.1510,0.0093,0.2579,0.0625,37.46,30.11,696.0,0.05,0.5,0.01,0.1,69.6,6.96,0.01
00:46:40,4.8700,0.0413,0.2595,0.0628,37.68,30.26,663.0,0.2,2.0,0.02,0.2,66.3,6.63,0.02
00:47:30,5.1510,0.0092,0.2659,0.0643,38.61,31.01,650.0,0.05,0.5,0.01,0.1,65.0,6.5,0.01
00:48:20,5.1510,0.0093,0.2725,0.0662,39.57,31.90,625.0,0.05,0.5,0.01,0.1,62.5,6.25,0.01
00:49:10,5.1510,0.0092,0.2787,0.0680,40.47,32.78,618.0,0.05,0.5,0.01,0.1,61.8,6.18,0.01
00:50:00,2.9440,0.3412,0.2850,0.0699,41.39,33.71,650.0,1.0,10.0,0.11,1.1,65.0,6.5,0.12
00:50:50,4.2500,0.1461,0.2891,0.0708,41.99,34.14,652.0,0.62,6.2,0.07,0.7,65.2,6.52,0.07
00:51:40,5.1510,0.0093,0.2924,0.0720,42.46,34.69,639.0,0.05,0.5,0.01,0.1,63.9,6.39,0.01
00:52:30,5.1510,0.0092,0.2931,0.0721,42.55,34.75,644.0,0.05,0.5,0.01,0.1,64.4,6.44,0.01
00:53:20,5.1510,0.0093,0.2971,0.0730,43.14,35.18,653.0,0.05,0.5,0.01,0.1,65.3,6.53,0.01
00:54:10,5.0410,0.1134,0.3009,0.0738,43.70,35.58,662.0,0.57,5.7,0.06,0.6,66.2,6.62,0.06
00:55:00,5.1510,0.0093,0.3053,0.0748,44.33,36.05,659.0,0.05,0.5,0.01,0.1,65.9,6.59,0.01
00:55:50,2.5520,0.1611,0.3107,0.0765,45.12,36.87,653.0,0.41,4.1,0.04,0.4,65.3,6.53,0.05
00:56:40,5.1520,0.0093,0.3135,0.0775,45.53,37.36,594.0,0.05,0.5,0.01,0.1,59.4,5.94,0.01
00:57:30,5.1520,0.0092,0.3185,0.0790,46.25,38.10,511.0,0.05,0.5,0.01,0.1,51.1,5.11,0.01
00:58:20,5.1520,0.0092,0.3325,0.0837,48.28,40.33,654.0,0.05,0.5,0.01,0.1,65.4,6.54,0.01
00:59:10,5.1520,0.0093,0.3348,0.0843,48.61,40.62,671.0,0.05,0.5,0.01,0.1,67.1,6.71,0.01
01:00:00,5.1520,0.0093,0.3392,0.0856,49.25,41.25,679.0,0.05,0.5,0.01,0.1,67.9,6.79,0.01
01:00:50,2.7630,0.7663,0.3626,0.0924,52.65,44.56,579.0,2.12,21.2,0.22,2.2,57.9,5.79,0.28
01:01:40,2.7520,0.7646,0.3915,0.1029,56.85,49.62,663.0,2.1,21.0,0.22,2.2,66.3,6.63,0.24
01:02:30,2.7380,0.7663,0.4211,0.1137,61.15,54.82,660.0,2.1,21.0,0.22,2.2,66.0,6.6,0.24
01:03:20,2.7280,0.7586,0.4501,0.1243,65.36,59.93,655.0,2.07,20.7,0.22,2.2,65.5,6.55,0.24
01:04:10,2.7130,0.7597,0.4786,0.1348,69.50,65.00,640.0,2.06,20.6,0.22,2.2,64.0,6.4,0.24
01:05:00,2.6840,0.7209,0.5063,0.1451,73.52,69.94,536.0,1.93,19.3,0.2,2.0,53.6,5.36,0.27
01:05:50,2.6800,0.7165,0.5330,0.1550,77.40,74.74,565.0,1.92,19.2,0.2,2.0,56.5,5.65,0.26
01:06:40,2.6690,0.6992,0.5592,0.1648,81.20,79.46,536.0,1.87,18.7,0.2,2.0,53.6,5.36,0.26
01:07:30,2.6530,0.6980,0.5819,0.1730,84.50,83.42,524.0,1.85,18.5,0.2,2.0,52.4,5.24,0.27
01:08:20,2.6230,0.6497,0.6066,0.1824,88.09,87.93,326.0,1.7,17.0,0.18,1.8,32.6,3.26,0.39
01:09:10,2.6130,0.6408,0.6305,0.1915,91.56,92.33,259.0,1.67,16.7,0.18,1.8,25.9,2.59,0.48
01:10:00,5.1520,0.0117,0.6480,0.1970,94.09,94.99,270.0,0.06,0.6,0.01,0.1,27.0,2.7,0.02
01:10:50,5.1520,0.0092,0.6486,0.1972,94.19,95.05,366.0,0.05,0.5,0.01,0.1,36.6,3.66,0.01
01:11:40,3.7920,0.3686,0.6596,0.2001,95.79,96.44,625.0,1.4,14.0,0.15,1.5,62.5,6.25,0.17
01:12:30,5.1520,0.0092,0.6603,0.2002,95.88,96.51,650.0,0.05,0.5,0.01,0.1,65.0,6.5,0.01
01:13:20,5.1510,0.0650,0.6655,0.2014,96.64,97.10,644.0,0.33,3.3,0.03,0.3,64.4,6.44,0.04
01:14:10,5.1520,0.0093,0.6690,0.2023,97.14,97.50,629.0,0.05,0.5,0.01,0.1,62.9,6.29,0.01
01:15:00,3.4920,0.3532,0.6757,0.2040,98.13,98.35,604.0,1.23,12.3,0.13,1.3,60.4,6.04,0.15
01:15:50,5.1520,0.0086,0.6796,0.2051,98.69,98.85,598.0,0.04,0.4,0.0,0.0,59.8,5.98,0.01
01:16:40,3.2460,0.3212,0.6886,0.2074,100.00,100.00,604.0,1.04,10.4,0.11,1.1,60.4,6.04,0.13
01:16:50,5.1520,0.0092,0.6888,0.2075,100.02,100.01,598.0,0.05,0.5,0.01,0.1,59.8,5.98,0.01