File: output/10/gznomad7-3.csv
Time,Voltage(V),Current(A),Energy(Wh),Capacity(Ah),Energy Proportion(%),Capacity Proportion(%),Irradiance(W/m2),Power(W),Sunlight Level
00:00:00,5.0960,0.0984,0.0014,0.0003,0.03,0.03,868.0,0.5,8.68
00:00:50,4.4350,0.2588,0.0056,0.0012,0.12,0.13,866.0,1.15,8.66
00:01:40,5.0110,0.5122,0.0375,0.0076,0.80,0.80,856.0,2.57,8.56
00:02:30,5.0100,0.5124,0.0732,0.0147,1.56,1.54,855.0,2.57,8.55
00:03:20,5.0110,0.5124,0.1088,0.0218,2.31,2.29,850.0,2.57,8.5
00:04:10,5.0100,0.5122,0.1445,0.0289,3.07,3.04,855.0,2.57,8.55
00:05:00,5.0090,0.5122,0.1801,0.0360,3.83,3.79,854.0,2.57,8.54
00:05:50,5.0100,0.5123,0.2157,0.0431,4.59,4.54,849.0,2.57,8.49
00:06:40,5.0090,0.5124,0.2514,0.0502,5.35,5.29,847.0,2.57,8.47
00:07:30,5.0100,0.5122,0.2870,0.0574,6.10,6.04,842.0,2.57,8.42
00:08:20,5.0090,0.5124,0.3227,0.0645,6.86,6.79,830.0,2.57,8.3
00:09:10,5.0090,0.5122,0.3583,0.0716,7.62,7.53,835.0,2.57,8.35
00:10:00,5.0090,0.5124,0.3939,0.0787,8.38,8.28,826.0,2.57,8.26
00:10:50,5.0080,0.5122,0.4296,0.0858,9.14,9.03,828.0,2.57,8.28
00:11:40,5.0090,0.5123,0.4652,0.0929,9.89,9.78,839.0,2.57,8.39
00:12:30,5.0080,0.5124,0.5008,0.1001,10.65,10.53,837.0,2.57,8.37
00:13:20,5.0080,0.5123,0.5365,0.1072,11.41,11.28,854.0,2.57,8.54
00:14:10,5.0080,0.5121,0.5721,0.1143,12.17,12.03,863.0,2.56,8.63
00:15:00,5.0070,0.5126,0.6077,0.1214,12.93,12.78,870.0,2.57,8.7
00:15:50,5.0080,0.5120,0.6433,0.1285,13.68,13.52,869.0,2.56,8.69
00:16:40,5.0080,0.5125,0.6790,0.1356,14.44,14.27,875.0,2.57,8.75
00:17:30,5.0070,0.5122,0.7146,0.1427,15.20,15.02,872.0,2.56,8.72
00:18:20,5.0070,0.5122,0.7502,0.1499,15.96,15.77,861.0,2.56,8.61
00:19:10,5.0070,0.5121,0.7858,0.1570,16.71,16.52,860.0,2.56,8.6
00:20:00,5.0070,0.5123,0.8215,0.1641,17.47,17.27,843.0,2.57,8.43
00:20:50,5.0070,0.5123,0.8571,0.1712,18.23,18.02,826.0,2.57,8.26
00:21:40,5.0080,0.5119,0.8927,0.1783,18.99,18.77,811.0,2.56,8.11
00:22:30,5.0090,0.5123,0.9283,0.1854,19.74,19.51,800.0,2.57,8.0
00:23:20,5.0090,0.5122,0.9640,0.1925,20.50,20.26,802.0,2.57,8.02
00:24:10,5.0090,0.5121,0.9996,0.1996,21.26,21.01,790.0,2.57,7.9
00:25:00,4.9420,0.3995,1.0193,0.2036,21.68,21.43,678.0,1.97,6.78
00:25:50,5.0090,0.5121,1.0478,0.2093,22.29,22.03,822.0,2.57,8.22
00:26:40,5.0090,0.5123,1.0835,0.2164,23.04,22.78,810.0,2.57,8.1
00:27:30,5.0080,0.5122,1.1191,0.2235,23.80,23.52,797.0,2.57,7.97
00:28:20,5.0080,0.5121,1.1547,0.2306,24.56,24.27,795.0,2.56,7.95
00:29:10,5.0090,0.5125,1.1904,0.2377,25.32,25.02,793.0,2.57,7.93
00:30:00,5.0090,0.5122,1.2260,0.2449,26.08,25.77,795.0,2.57,7.95
00:30:50,5.0100,0.5123,1.2616,0.2520,26.83,26.52,796.0,2.57,7.96
00:31:40,5.0100,0.5124,1.2973,0.2591,27.59,27.27,795.0,2.57,7.95
00:32:30,5.0100,0.5124,1.3329,0.2662,28.35,28.02,799.0,2.57,7.99
00:33:20,5.0100,0.5125,1.3686,0.2733,29.11,28.77,800.0,2.57,8.0
00:34:10,5.0100,0.5124,1.4042,0.2804,29.87,29.51,801.0,2.57,8.01
00:35:00,5.0100,0.5122,1.4399,0.2876,30.62,30.26,799.0,2.57,7.99
00:35:50,5.0090,0.5123,1.4755,0.2947,31.38,31.01,805.0,2.57,8.05
00:36:40,5.0090,0.5122,1.5112,0.3018,32.14,31.76,807.0,2.57,8.07
00:37:30,5.0080,0.5122,1.5468,0.3089,32.90,32.51,814.0,2.57,8.14
00:38:20,5.0080,0.5122,1.5824,0.3160,33.66,33.26,818.0,2.57,8.18
00:39:10,5.0070,0.5125,1.6180,0.3231,34.41,34.01,822.0,2.57,8.22
00:40:00,5.0080,0.5124,1.6537,0.3302,35.17,34.76,819.0,2.57,8.19
00:40:50,5.0090,0.5122,1.6893,0.3374,35.93,35.51,814.0,2.57,8.14
00:41:40,5.0080,0.5123,1.7250,0.3445,36.69,36.25,810.0,2.57,8.1
00:42:30,5.0090,0.5121,1.7606,0.3516,37.45,37.00,813.0,2.57,8.13
00:43:20,5.0090,0.5124,1.7963,0.3587,38.20,37.75,808.0,2.57,8.08
00:44:10,5.0090,0.5124,1.8319,0.3658,38.96,38.50,810.0,2.57,8.1
00:45:00,5.0090,0.5123,1.8675,0.3729,39.72,39.25,795.0,2.57,7.95
00:45:50,5.0080,0.5122,1.9031,0.3801,40.48,40.00,793.0,2.57,7.93
00:46:40,5.0080,0.5124,1.9388,0.3872,41.24,40.75,791.0,2.57,7.91
00:47:30,5.0080,0.5126,1.9744,0.3943,41.99,41.50,783.0,2.57,7.83
00:48:20,5.0080,0.5122,2.0101,0.4014,42.75,42.25,783.0,2.57,7.83
00:49:10,5.0080,0.5123,2.0457,0.4085,43.51,42.99,779.0,2.57,7.79
00:50:00,5.0080,0.5122,2.0813,0.4156,44.27,43.74,776.0,2.57,7.76
00:50:50,5.0080,0.5124,2.1170,0.4227,45.03,44.49,777.0,2.57,7.77
00:51:40,5.0080,0.5121,2.1526,0.4299,45.78,45.24,775.0,2.56,7.75
00:52:30,5.0070,0.5123,2.1882,0.4370,46.54,45.99,772.0,2.57,7.72
00:53:20,5.0070,0.5122,2.2238,0.4441,47.30,46.74,771.0,2.56,7.71
00:54:10,5.0070,0.5119,2.2595,0.4512,48.06,47.49,768.0,2.56,7.68
00:55:00,5.0070,0.5123,2.2951,0.4583,48.81,48.24,771.0,2.57,7.71
00:55:50,5.0060,0.5122,2.3307,0.4654,49.57,48.98,770.0,2.56,7.7
00:56:40,5.0060,0.5120,2.3663,0.4725,50.33,49.73,769.0,2.56,7.69
00:57:30,5.0060,0.5122,2.4019,0.4797,51.09,50.48,770.0,2.56,7.7
00:58:20,5.0060,0.5123,2.4375,0.4868,51.84,51.23,778.0,2.56,7.78
00:59:10,5.0060,0.5124,2.4731,0.4939,52.60,51.98,772.0,2.57,7.72
01:00:00,5.0070,0.5125,2.5088,0.5010,53.36,52.73,783.0,2.57,7.83
01:00:50,5.0080,0.5122,2.5444,0.5081,54.12,53.48,782.0,2.57,7.82
01:01:40,5.0070,0.5122,2.5800,0.5152,54.87,54.23,785.0,2.56,7.85
01:02:30,5.0070,0.5124,2.6156,0.5223,55.63,54.97,797.0,2.57,7.97
01:03:20,2.3310,0.0592,2.6238,0.5242,55.81,55.17,109.9,0.14,1.099
01:04:10,2.3750,0.1882,2.6286,0.5261,55.91,55.37,781.0,0.45,7.81
01:05:00,2.3490,0.1723,2.6342,0.5285,56.03,55.62,778.0,0.4,7.78
01:05:50,2.3480,0.1687,2.6399,0.5309,56.15,55.87,772.0,0.4,7.72
01:06:40,2.2960,0.0550,2.6419,0.5318,56.19,55.96,83.5,0.13,0.835
01:07:30,2.3160,0.0569,2.6438,0.5326,56.23,56.05,91.0,0.13,0.91
01:08:20,5.0120,0.5121,2.6528,0.5348,56.42,56.29,798.0,2.57,7.98
01:09:10,5.0110,0.5123,2.6885,0.5419,57.18,57.04,780.0,2.57,7.8
01:10:00,5.0100,0.5124,2.7241,0.5491,57.94,57.78,780.0,2.57,7.8
01:10:50,5.0100,0.5123,2.7598,0.5562,58.70,58.53,788.0,2.57,7.88
01:11:40,5.0090,0.5124,2.7954,0.5633,59.46,59.28,792.0,2.57,7.92
01:12:30,5.0090,0.5122,2.8311,0.5704,60.21,60.03,788.0,2.57,7.88
01:13:20,5.0090,0.5124,2.8667,0.5775,60.97,60.78,782.0,2.57,7.82
01:14:10,5.0090,0.5122,2.9023,0.5846,61.73,61.53,776.0,2.57,7.76
01:15:00,5.0090,0.5124,2.9380,0.5917,62.49,62.28,775.0,2.57,7.75
01:15:50,5.0090,0.5123,2.9736,0.5989,63.25,63.03,771.0,2.57,7.71
01:16:40,5.0090,0.5123,3.0093,0.6060,64.00,63.78,779.0,2.57,7.79
01:17:30,5.0090,0.5123,3.0449,0.6131,64.76,64.52,782.0,2.57,7.82
01:18:20,5.0100,0.5122,3.0735,0.6188,65.37,65.13,704.0,2.57,7.04
01:19:10,5.0090,0.5121,3.1092,0.6259,66.13,65.87,782.0,2.57,7.82
01:20:00,5.0090,0.5123,3.1417,0.6325,66.82,66.57,704.0,2.57,7.04
01:20:50,5.0090,0.5123,3.1774,0.6396,67.58,67.32,788.0,2.57,7.88
01:21:40,5.0080,0.5121,3.2130,0.6467,68.34,68.06,779.0,2.56,7.79
01:22:30,5.0080,0.5124,3.2486,0.6538,69.09,68.81,781.0,2.57,7.81
01:23:20,5.0070,0.5124,3.2843,0.6610,69.85,69.56,777.0,2.57,7.77
01:24:10,5.0070,0.5123,3.3199,0.6681,70.61,70.31,773.0,2.57,7.73
01:25:00,5.0070,0.5124,3.3555,0.6752,71.37,71.06,773.0,2.57,7.73
01:25:50,5.0070,0.5123,3.3911,0.6823,72.13,71.81,767.0,2.57,7.67
01:26:40,5.0060,0.5122,3.4268,0.6894,72.88,72.56,759.0,2.56,7.59
01:27:30,5.0070,0.5123,3.4624,0.6965,73.64,73.31,753.0,2.57,7.53
01:28:20,5.0060,0.5122,3.4980,0.7037,74.40,74.06,750.0,2.56,7.5
01:29:10,5.0070,0.5123,3.5336,0.7108,75.16,74.80,750.0,2.57,7.5
01:30:00,5.0060,0.5121,3.5692,0.7179,75.91,75.55,754.0,2.56,7.54
01:30:50,5.0070,0.5123,3.6049,0.7250,76.67,76.30,753.0,2.57,7.53
01:31:40,5.0070,0.5123,3.6405,0.7321,77.43,77.05,764.0,2.57,7.64
01:32:30,5.0070,0.5124,3.6761,0.7392,78.19,77.80,764.0,2.57,7.64
01:33:20,5.0080,0.5122,3.7117,0.7463,78.94,78.55,765.0,2.57,7.65
01:34:10,5.0080,0.5123,3.7474,0.7535,79.70,79.30,762.0,2.57,7.62
01:35:00,5.0080,0.5123,3.7830,0.7606,80.46,80.05,750.0,2.57,7.5
01:35:50,5.0080,0.5122,3.8186,0.7677,81.22,80.79,746.0,2.57,7.46
01:36:40,5.0080,0.5124,3.8542,0.7748,81.98,81.54,739.0,2.57,7.39
01:37:30,5.0080,0.5122,3.8899,0.7819,82.73,82.29,734.0,2.57,7.34
01:38:20,5.0090,0.5122,3.9255,0.7890,83.49,83.04,734.0,2.57,7.34
01:39:10,5.0080,0.5122,3.9611,0.7961,84.25,83.79,731.0,2.57,7.31
01:40:00,5.0080,0.5121,3.9968,0.8033,85.01,84.54,727.0,2.56,7.27
01:40:50,5.0070,0.5123,4.0324,0.8104,85.77,85.29,731.0,2.57,7.31
01:41:40,5.0080,0.5122,4.0680,0.8175,86.52,86.04,740.0,2.57,7.4
01:42:30,5.0070,0.5124,4.1037,0.8246,87.28,86.78,727.0,2.57,7.27
01:43:20,5.0070,0.5123,4.1393,0.8317,88.04,87.53,726.0,2.57,7.26
01:44:10,5.0070,0.5122,4.1749,0.8388,88.80,88.28,734.0,2.56,7.34
01:45:00,5.0080,0.5122,4.2105,0.8460,89.55,89.03,733.0,2.57,7.33
01:45:50,5.0080,0.5124,4.2392,0.8517,90.16,89.63,708.0,2.57,7.08
01:46:40,5.0070,0.5123,4.2748,0.8588,90.92,90.38,741.0,2.57,7.41
01:47:30,2.7450,0.0812,4.2969,0.8633,91.39,90.86,106.6,0.22,1.066
01:48:20,4.7660,0.1484,4.3008,0.8644,91.47,90.97,434.0,0.71,4.34
01:49:10,5.0090,0.5122,4.3364,0.8715,92.23,91.72,720.0,2.57,7.2
01:50:00,4.5920,0.0091,4.3650,0.8772,92.84,92.32,521.0,0.04,5.21
01:50:50,2.3180,0.0894,4.3676,0.8783,92.90,92.44,273.0,0.21,2.73
01:51:40,2.3080,0.0684,4.3704,0.8795,92.95,92.56,175.5,0.16,1.755
01:52:30,2.3030,0.0621,4.3724,0.8804,93.00,92.66,101.7,0.14,1.017
01:53:20,5.0110,0.5121,4.4010,0.8861,93.61,93.26,731.0,2.57,7.31
01:54:10,5.0100,0.5121,4.4366,0.8932,94.36,94.01,708.0,2.57,7.08
01:55:00,5.0090,0.5121,4.4723,0.9003,95.12,94.75,722.0,2.57,7.22
01:55:50,5.0090,0.5122,4.5079,0.9074,95.88,95.50,720.0,2.57,7.2
01:56:40,2.3130,0.0573,4.5164,0.9094,96.06,95.71,95.7,0.13,0.957
01:57:30,4.6130,0.0090,4.5183,0.9102,96.10,95.79,363.0,0.04,3.63
01:58:20,5.0110,0.5123,4.5540,0.9173,96.86,96.54,680.0,2.57,6.8
01:59:10,2.7240,0.1471,4.5570,0.9181,96.92,96.62,107.6,0.4,1.076
02:00:00,2.3370,0.0831,4.5606,0.9195,97.00,96.77,269.0,0.19,2.69
02:00:50,2.7670,0.0696,4.5628,0.9204,97.05,96.87,73.9,0.19,0.739
02:01:40,2.6180,0.2935,4.5669,0.9220,97.13,97.04,705.0,0.77,7.05
02:02:30,0.2590,0.0000,4.5731,0.9245,97.26,97.30,696.0,0.0,6.96
02:03:20,5.0110,0.5122,4.6087,0.9316,98.02,98.05,690.0,2.57,6.9
02:04:10,5.1270,0.0208,4.6375,0.9374,98.64,98.65,685.0,0.11,6.85
02:05:00,5.0100,0.5123,4.6732,0.9445,99.39,99.40,681.0,2.57,6.81
02:05:50,5.0070,0.5125,4.7088,0.9516,100.15,100.15,678.0,2.57,6.78