File: output/10/gznomad14-3.csv
Time,Voltage(V),Current(A),Energy(Wh),Capacity(Ah),Energy Proportion(%),Capacity Proportion(%),Irradiance(W/m2),Power(W),Sunlight Level
00:00:00,4.8530,1.4989,0.0202,0.0042,0.13,0.13,889.0,7.27,8.89
00:01:00,4.8610,1.4992,0.1417,0.0292,0.88,0.88,886.0,7.29,8.86
00:02:00,4.8620,1.4990,0.2631,0.0541,1.64,1.63,883.0,7.29,8.83
00:03:00,4.8630,1.4988,0.3846,0.0791,2.40,2.39,883.0,7.29,8.83
00:04:00,4.8640,1.4993,0.5061,0.1041,3.15,3.14,883.0,7.29,8.83
00:05:00,4.8650,1.4989,0.6277,0.1291,3.91,3.90,879.0,7.29,8.79
00:06:00,4.8660,1.4987,0.7492,0.1541,4.67,4.65,875.0,7.29,8.75
00:07:00,4.8670,1.4986,0.8707,0.1790,5.43,5.41,875.0,7.29,8.75
00:08:00,4.8670,1.4986,0.9923,0.2040,6.18,6.16,879.0,7.29,8.79
00:09:00,4.8670,1.4984,1.1139,0.2290,6.94,6.92,877.0,7.29,8.77
00:10:00,4.8680,1.4986,1.2355,0.2540,7.70,7.67,875.0,7.3,8.75
00:11:00,4.8690,1.4987,1.3571,0.2789,8.46,8.42,876.0,7.3,8.76
00:12:00,4.8680,1.4984,1.4787,0.3039,9.22,9.18,864.0,7.29,8.64
00:13:00,4.8680,1.4986,1.6003,0.3289,9.97,9.93,874.0,7.3,8.74
00:14:00,4.8680,1.4984,1.7218,0.3539,10.73,10.69,877.0,7.29,8.77
00:15:00,4.8680,1.4982,1.8434,0.3789,11.49,11.44,876.0,7.29,8.76
00:16:00,4.8680,1.4982,1.9650,0.4038,12.25,12.20,877.0,7.29,8.77
00:17:00,4.8680,1.4983,2.0866,0.4288,13.00,12.95,876.0,7.29,8.76
00:18:00,4.8680,1.4985,2.2081,0.4538,13.76,13.70,874.0,7.29,8.74
00:19:00,4.8690,1.4983,2.3297,0.4787,14.52,14.46,880.0,7.3,8.8
00:20:00,4.8680,1.4985,2.4513,0.5037,15.28,15.21,875.0,7.29,8.75
00:21:00,4.8690,1.4983,2.5729,0.5287,16.03,15.97,875.0,7.3,8.75
00:22:00,4.8690,1.4984,2.6945,0.5537,16.79,16.72,879.0,7.3,8.79
00:23:00,4.8680,1.4982,2.8160,0.5786,17.55,17.48,879.0,7.29,8.79
00:24:00,4.8680,1.4984,2.9376,0.6036,18.31,18.23,872.0,7.29,8.72
00:25:00,4.8690,1.4984,3.0592,0.6286,19.07,18.98,876.0,7.3,8.76
00:26:00,4.8680,1.4986,3.1808,0.6536,19.82,19.74,879.0,7.3,8.79
00:27:00,4.8680,1.4982,3.3023,0.6785,20.58,20.49,878.0,7.29,8.78
00:28:00,4.8680,1.4996,3.4239,0.7035,21.34,21.25,878.0,7.3,8.78
00:29:00,4.8680,1.4987,3.5454,0.7285,22.10,22.00,878.0,7.3,8.78
00:30:00,4.8680,1.4984,3.6670,0.7534,22.85,22.75,880.0,7.29,8.8
00:31:00,4.8670,1.4989,3.7885,0.7784,23.61,23.51,878.0,7.3,8.78
00:32:00,4.8680,1.4965,3.9100,0.8034,24.37,24.26,877.0,7.28,8.77
00:33:00,4.8680,1.4970,4.0315,0.8283,25.13,25.02,873.0,7.29,8.73
00:34:00,4.8680,1.4967,4.1531,0.8533,25.88,25.77,874.0,7.29,8.74
00:35:00,4.8680,1.4962,4.2746,0.8783,26.64,26.52,872.0,7.28,8.72
00:36:00,4.8680,1.5002,4.3962,0.9032,27.40,27.28,874.0,7.3,8.74
00:37:00,4.8680,1.4994,4.5178,0.9282,28.16,28.03,872.0,7.3,8.72
00:38:00,4.8680,1.4997,4.6394,0.9532,28.91,28.79,874.0,7.3,8.74
00:39:00,4.8680,1.4996,4.7611,0.9782,29.67,29.54,873.0,7.3,8.73
00:40:00,4.8680,1.4981,4.8826,1.0032,30.43,30.30,872.0,7.29,8.72
00:41:00,4.8670,1.4963,5.0042,1.0281,31.19,31.05,876.0,7.28,8.76
00:42:00,4.8670,1.4975,5.1257,1.0531,31.94,31.81,873.0,7.29,8.73
00:43:00,4.8670,1.4947,5.2473,1.0781,32.70,32.56,871.0,7.27,8.71
00:44:00,4.8680,1.4972,5.3689,1.1031,33.46,33.31,867.0,7.29,8.67
00:45:00,4.8680,1.4960,5.4904,1.1280,34.22,34.07,871.0,7.28,8.71
00:46:00,4.8670,1.5003,5.6119,1.1530,34.97,34.82,871.0,7.3,8.71
00:47:00,4.8670,1.4963,5.7333,1.1779,35.73,35.58,872.0,7.28,8.72
00:48:00,4.8660,1.4983,5.8548,1.2029,36.49,36.33,873.0,7.29,8.73
00:49:00,4.8670,1.4995,5.9764,1.2279,37.25,37.08,870.0,7.3,8.7
00:50:00,4.8670,1.4994,6.0979,1.2528,38.00,37.84,870.0,7.3,8.7
00:51:00,4.8660,1.5002,6.2195,1.2778,38.76,38.59,873.0,7.3,8.73
00:52:00,4.8660,1.5003,6.3410,1.3028,39.52,39.35,871.0,7.3,8.71
00:53:00,4.8680,1.4963,6.4625,1.3278,40.28,40.10,867.0,7.28,8.67
00:54:00,4.8680,1.4969,6.5841,1.3527,41.03,40.85,864.0,7.29,8.64
00:55:00,4.8670,1.5004,6.7056,1.3777,41.79,41.61,862.0,7.3,8.62
00:56:00,4.8670,1.4982,6.8272,1.4027,42.55,42.36,862.0,7.29,8.62
00:57:00,4.8660,1.5006,6.9488,1.4277,43.31,43.12,865.0,7.3,8.65
00:58:00,4.8660,1.4946,7.0703,1.4526,44.06,43.87,863.0,7.27,8.63
00:59:00,4.8660,1.4984,7.1917,1.4776,44.82,44.63,863.0,7.29,8.63
01:00:00,4.8660,1.4973,7.3132,1.5026,45.58,45.38,859.0,7.29,8.59
01:01:00,4.8650,1.4988,7.4346,1.5275,46.33,46.13,861.0,7.29,8.61
01:02:00,4.8650,1.4981,7.5560,1.5525,47.09,46.89,858.0,7.29,8.58
01:03:00,4.8650,1.4985,7.6775,1.5774,47.85,47.64,859.0,7.29,8.59
01:04:00,4.8650,1.4957,7.7989,1.6024,48.60,48.39,857.0,7.28,8.57
01:05:00,4.8650,1.4971,7.9204,1.6274,49.36,49.15,854.0,7.28,8.54
01:06:00,4.8660,1.4964,8.0418,1.6523,50.12,49.90,850.0,7.28,8.5
01:07:00,4.8650,1.4990,8.1633,1.6773,50.88,50.66,856.0,7.29,8.56
01:08:00,4.8660,1.4958,8.2848,1.7023,51.63,51.41,853.0,7.28,8.53
01:09:00,4.8660,1.4951,8.4062,1.7272,52.39,52.16,848.0,7.28,8.48
01:10:00,4.8660,1.4984,8.5277,1.7522,53.15,52.92,849.0,7.29,8.49
01:11:00,4.8650,1.4995,8.6492,1.7772,53.90,53.67,844.0,7.3,8.44
01:12:00,4.8640,1.4980,8.7707,1.8021,54.66,54.43,851.0,7.29,8.51
01:13:00,4.8640,1.4983,8.8921,1.8271,55.42,55.18,851.0,7.29,8.51
01:14:00,4.8640,1.4975,9.0135,1.8521,56.17,55.93,851.0,7.28,8.51
01:15:00,4.8640,1.4976,9.1349,1.8770,56.93,56.69,848.0,7.28,8.48
01:16:00,4.8640,1.4985,9.2564,1.9020,57.69,57.44,845.0,7.29,8.45
01:17:00,4.8630,1.4993,9.3778,1.9270,58.44,58.20,850.0,7.29,8.5
01:18:00,4.8630,1.4964,9.4992,1.9519,59.20,58.95,849.0,7.28,8.49
01:19:00,4.8630,1.4993,9.6206,1.9769,59.96,59.70,848.0,7.29,8.48
01:20:00,4.8640,1.4958,9.7419,2.0018,60.71,60.46,848.0,7.28,8.48
01:21:00,4.8640,1.4961,9.8634,2.0268,61.47,61.21,849.0,7.28,8.49
01:22:00,4.8630,1.4975,9.9849,2.0518,62.23,61.97,844.0,7.28,8.44
01:23:00,4.8640,1.4973,10.1063,2.0767,62.99,62.72,837.0,7.28,8.37
01:24:00,4.8640,1.4996,10.2278,2.1017,63.74,63.47,846.0,7.29,8.46
01:25:00,4.8630,1.4998,10.3491,2.1267,64.50,64.23,838.0,7.29,8.38
01:26:00,4.8630,1.4983,10.4706,2.1516,65.26,64.98,835.0,7.29,8.35
01:27:00,4.8630,1.4996,10.5921,2.1766,66.01,65.74,839.0,7.29,8.39
01:28:00,4.8630,1.5003,10.7136,2.2016,66.77,66.49,834.0,7.3,8.34
01:29:00,4.8620,1.5001,10.8351,2.2266,67.53,67.25,836.0,7.29,8.36
01:30:00,4.8620,1.4969,10.9564,2.2515,68.28,68.00,829.0,7.28,8.29
01:31:00,4.8620,1.5006,11.0778,2.2765,69.04,68.75,828.0,7.3,8.28
01:32:00,4.8630,1.4985,11.1992,2.3015,69.80,69.51,828.0,7.29,8.28
01:33:00,4.8630,1.4963,11.3206,2.3264,70.55,70.26,820.0,7.28,8.2
01:34:00,4.8620,1.4965,11.4420,2.3514,71.31,71.02,816.0,7.28,8.16
01:35:00,4.8620,1.4969,11.5635,2.3764,72.07,71.77,817.0,7.28,8.17
01:36:00,4.8630,1.4975,11.6849,2.4014,72.82,72.52,814.0,7.28,8.14
01:37:00,4.8620,1.5001,11.8064,2.4264,73.58,73.28,819.0,7.29,8.19
01:38:00,4.8630,1.4963,11.9279,2.4513,74.34,74.03,821.0,7.28,8.21
01:39:00,4.8630,1.4996,12.0493,2.4763,75.09,74.79,819.0,7.29,8.19
01:40:00,4.8630,1.4987,12.1707,2.5013,75.85,75.54,811.0,7.29,8.11
01:41:00,4.8630,1.4998,12.2921,2.5262,76.61,76.30,815.0,7.29,8.15
01:42:00,4.8640,1.4980,12.4136,2.5512,77.36,77.05,813.0,7.29,8.13
01:43:00,4.8640,1.4957,12.5349,2.5762,78.12,77.80,809.0,7.28,8.09
01:44:00,4.8630,1.4963,12.6563,2.6011,78.88,78.56,803.0,7.28,8.03
01:45:00,4.8640,1.4957,12.7777,2.6261,79.63,79.31,806.0,7.28,8.06
01:46:00,4.8650,1.4961,12.8992,2.6510,80.39,80.07,808.0,7.28,8.08
01:47:00,4.8650,1.4988,13.0206,2.6760,81.15,80.82,799.0,7.29,7.99
01:48:00,4.8640,1.4970,13.1421,2.7010,81.91,81.57,800.0,7.28,8.0
01:49:00,4.8650,1.4981,13.2636,2.7260,82.66,82.33,798.0,7.29,7.98
01:50:00,4.8640,1.4987,13.3851,2.7509,83.42,83.08,793.0,7.29,7.93
01:51:00,4.8630,1.4990,13.5065,2.7759,84.18,83.84,795.0,7.29,7.95
01:52:00,4.8640,1.4987,13.6279,2.8009,84.93,84.59,795.0,7.29,7.95
01:53:00,4.8640,1.4963,13.7493,2.8258,85.69,85.34,794.0,7.28,7.94
01:54:00,4.8640,1.4977,13.8707,2.8508,86.45,86.10,790.0,7.28,7.9
01:55:00,4.8630,1.4988,13.9921,2.8757,87.20,86.85,789.0,7.29,7.89
01:56:00,4.8640,1.4988,14.1135,2.9007,87.96,87.61,794.0,7.29,7.94
01:57:00,4.8640,1.4975,14.2349,2.9257,88.72,88.36,801.0,7.28,8.01
01:58:00,4.8640,1.4977,14.3564,2.9506,89.47,89.11,804.0,7.28,8.04
01:59:00,4.8640,1.4982,14.4778,2.9756,90.23,89.87,797.0,7.29,7.97
02:00:00,4.8650,1.4985,14.5993,3.0006,90.99,90.62,796.0,7.29,7.96
02:01:00,4.8650,1.4963,14.7207,3.0255,91.74,91.38,793.0,7.28,7.93
02:02:00,4.8640,1.4974,14.8421,3.0505,92.50,92.13,787.0,7.28,7.87
02:03:00,4.8650,1.4979,14.9635,3.0755,93.26,92.88,780.0,7.29,7.8
02:04:00,4.8640,1.4974,15.0849,3.1004,94.01,93.64,775.0,7.28,7.75
02:05:00,4.8640,1.4967,15.2063,3.1254,94.77,94.39,775.0,7.28,7.75
02:06:00,4.8640,1.4982,15.3277,3.1503,95.53,95.14,785.0,7.29,7.85
02:07:00,4.8630,1.4978,15.4491,3.1753,96.28,95.90,785.0,7.28,7.85
02:08:00,4.8640,1.4973,15.5705,3.2003,97.04,96.65,789.0,7.28,7.89
02:09:00,4.8630,1.4977,15.6919,3.2252,97.80,97.41,795.0,7.28,7.95
02:10:00,5.1450,0.1232,15.7948,3.2464,98.44,98.04,305.0,0.63,3.05
02:11:00,2.7380,0.4781,15.8064,3.2510,98.51,98.18,218.0,1.31,2.18
02:12:00,2.3000,0.1550,15.8122,3.2533,98.55,98.25,114.8,0.36,1.148
02:13:00,2.4550,0.1592,15.8176,3.2555,98.58,98.32,96.9,0.39,0.969
02:14:00,2.2830,0.1444,15.8233,3.2579,98.61,98.39,98.1,0.33,0.981
02:15:00,2.3700,0.1782,15.8290,3.2602,98.65,98.46,114.2,0.42,1.142
02:16:00,4.9290,1.1176,15.8502,3.2659,98.78,98.63,661.0,5.51,6.61
02:17:00,2.4130,0.2245,15.8744,3.2718,98.93,98.81,167.1,0.54,1.671
02:18:00,2.5710,0.1705,15.8829,3.2752,98.99,98.91,111.3,0.44,1.113
02:19:00,2.4970,0.1649,15.8900,3.2775,99.03,98.98,112.7,0.41,1.127
02:20:00,4.8540,1.4967,15.9174,3.2841,99.20,99.18,589.0,7.26,5.89
02:21:00,4.6210,0.0090,15.9849,3.2986,99.62,99.62,280.0,0.04,2.8
02:21:40,4.8550,1.4985,16.0657,3.3153,100.13,100.13,798.0,7.28,7.98