File: output/10/solarcamp-3.csv
Time,Voltage(V),Current(A),Energy(Wh),Capacity(Ah),Energy Proportion(%),Capacity Proportion(%),Irradiance(W/m2),Power(W),Sunlight Level
00:00:00,5.1480,0.0090,0.0001,0.0000,0.01,0.00,833.0,0.05,8.33
00:00:30,4.9310,0.9992,0.0280,0.0057,1.19,1.05,841.0,4.93,8.41
00:01:00,4.4740,0.1385,0.0549,0.0115,2.33,2.13,840.0,0.62,8.4
00:01:30,4.6100,0.0694,0.0560,0.0118,2.38,2.18,838.0,0.32,8.38
00:02:00,2.5220,0.2000,0.0590,0.0129,2.50,2.39,827.0,0.5,8.27
00:02:30,3.6900,0.1460,0.0633,0.0144,2.68,2.67,816.0,0.54,8.16
00:03:00,4.9310,0.9990,0.0908,0.0200,3.85,3.70,815.0,4.93,8.15
00:03:30,4.9340,0.9992,0.1319,0.0283,5.59,5.24,809.0,4.93,8.09
00:04:00,4.9320,0.9993,0.1729,0.0367,7.34,6.77,806.0,4.93,8.06
00:04:30,4.9340,0.9998,0.2140,0.0450,9.08,8.31,803.0,4.93,8.03
00:05:00,5.1490,0.0084,0.2416,0.0506,10.25,9.34,801.0,0.04,8.01
00:05:30,5.1480,0.0091,0.2442,0.0514,10.36,9.50,799.0,0.05,7.99
00:06:00,4.9360,0.9989,0.2596,0.0547,11.01,10.10,791.0,4.93,7.91
00:06:30,4.9390,0.9992,0.3007,0.0630,12.76,11.64,788.0,4.94,7.88
00:07:00,4.9500,0.9996,0.3419,0.0713,14.51,13.18,785.0,4.95,7.85
00:07:30,4.9540,0.9993,0.3831,0.0797,16.26,14.72,781.0,4.95,7.81
00:08:00,4.8830,0.9998,0.4240,0.0880,17.99,16.25,782.0,4.88,7.82
00:08:30,4.8350,0.9993,0.4645,0.0963,19.71,17.79,782.0,4.83,7.82
00:09:00,4.7510,0.9992,0.4920,0.1020,20.88,18.84,771.0,4.75,7.71
00:09:30,4.8270,0.9991,0.5319,0.1103,22.57,20.38,768.0,4.82,7.68
00:10:00,5.1490,0.0082,0.5384,0.1121,22.84,20.70,770.0,0.04,7.7
00:10:30,4.5620,0.0770,0.5419,0.1128,22.99,20.83,788.0,0.35,7.88
00:11:00,4.6980,0.9991,0.5552,0.1156,23.56,21.36,124.2,4.69,1.242
00:11:30,4.4040,0.9983,0.5924,0.1239,25.14,22.89,104.8,4.4,1.048
00:12:00,4.2910,0.9987,0.6283,0.1323,26.66,24.43,105.8,4.29,1.058
00:12:30,4.3010,0.9988,0.6641,0.1406,28.18,25.97,99.1,4.3,0.991
00:13:00,4.2500,0.9982,0.6995,0.1489,29.68,27.50,100.1,4.24,1.001
00:13:30,4.2310,0.9987,0.7347,0.1572,31.17,29.04,127.7,4.23,1.277
00:14:00,4.1230,0.9984,0.7693,0.1656,32.64,30.58,832.0,4.12,8.32
00:14:30,4.1470,0.9984,0.8036,0.1739,34.10,32.12,828.0,4.14,8.28
00:15:00,4.2190,0.9985,0.8386,0.1822,35.58,33.65,829.0,4.21,8.29
00:15:30,4.2960,0.9986,0.8741,0.1905,37.09,35.19,849.0,4.29,8.49
00:16:00,4.3230,0.9985,0.9101,0.1988,38.61,36.73,578.0,4.32,5.78
00:16:30,4.3270,0.9985,0.9461,0.2072,40.14,38.26,196.0,4.32,1.96
00:17:00,4.2660,0.9986,0.9816,0.2154,41.65,39.79,349.0,4.26,3.49
00:17:30,4.3180,0.9986,1.0174,0.2238,43.17,41.33,885.0,4.31,8.85
00:18:00,4.3520,0.9991,1.0536,0.2321,44.70,42.87,880.0,4.35,8.8
00:18:30,4.9070,0.4666,1.0839,0.2389,45.99,44.13,789.0,2.29,7.89
00:19:00,4.2200,0.9977,1.0958,0.2417,46.50,44.65,138.1,4.21,1.381
00:19:30,5.1490,0.0091,1.1189,0.2473,47.48,45.68,133.5,0.05,1.335
00:20:00,4.1360,0.9982,1.1326,0.2505,48.06,46.27,140.0,4.13,1.4
00:20:30,5.1470,0.0150,1.1549,0.2561,49.00,47.31,159.0,0.08,1.59
00:21:00,5.1500,0.0090,1.1644,0.2584,49.41,47.73,161.4,0.05,1.614
00:21:30,5.1500,0.0090,1.1682,0.2593,49.57,47.90,161.3,0.05,1.613
00:22:00,2.5970,0.2161,1.1716,0.2603,49.71,48.08,298.0,0.56,2.98
00:22:30,4.9550,0.9992,1.2128,0.2686,51.46,49.62,259.0,4.95,2.59
00:23:00,4.7300,0.9994,1.2533,0.2770,53.18,51.16,859.0,4.73,8.59
00:23:30,4.5500,0.9992,1.2884,0.2849,54.66,52.62,842.0,4.55,8.42
00:24:00,4.3560,0.9988,1.3251,0.2932,56.23,54.15,829.0,4.35,8.29
00:24:30,4.2300,0.9986,1.3606,0.3015,57.73,55.69,808.0,4.22,8.08
00:25:00,4.2280,0.9987,1.3956,0.3098,59.22,57.23,791.0,4.22,7.91
00:25:30,4.2250,0.9985,1.4306,0.3181,60.70,58.76,781.0,4.22,7.81
00:26:00,3.3810,0.2153,1.4562,0.3243,61.79,59.90,774.0,0.73,7.74
00:26:30,4.5290,0.8120,1.4667,0.3266,62.23,60.32,772.0,3.68,7.72
00:27:00,5.1500,0.0091,1.4684,0.3271,62.30,60.42,766.0,0.05,7.66
00:27:30,5.1500,0.0091,1.4702,0.3277,62.38,60.53,763.0,0.05,7.63
00:28:00,5.1500,0.0091,1.4726,0.3284,62.48,60.65,761.0,0.05,7.61
00:28:30,5.1490,0.0085,1.4742,0.3290,62.55,60.76,761.0,0.04,7.61
00:29:00,5.1490,0.0091,1.4758,0.3293,62.62,60.83,756.0,0.05,7.56
00:29:30,4.9420,0.9991,1.5053,0.3356,63.87,61.98,760.0,4.94,7.6
00:30:00,4.7620,0.9989,1.5457,0.3439,65.59,63.52,769.0,4.76,7.69
00:30:30,4.5760,0.9992,1.5842,0.3522,67.22,65.06,780.0,4.57,7.8
00:31:00,4.5470,0.9990,1.6220,0.3605,68.82,66.60,778.0,4.54,7.78
00:31:30,4.4610,0.9992,1.6593,0.3689,70.40,68.13,765.0,4.46,7.65
00:32:00,4.4670,0.9991,1.6964,0.3772,71.98,69.67,758.0,4.46,7.58
00:32:30,4.3600,0.9986,1.7329,0.3855,73.53,71.21,763.0,4.35,7.63
00:33:00,4.3240,0.9989,1.7693,0.3938,75.07,72.75,769.0,4.32,7.69
00:33:30,4.2760,0.9985,1.8050,0.4022,76.58,74.28,790.0,4.27,7.9
00:34:00,4.4530,0.9989,1.8415,0.4105,78.14,75.82,370.0,4.45,3.7
00:34:30,5.1490,0.0091,1.8565,0.4139,78.77,76.45,119.9,0.05,1.199
00:35:00,4.5710,0.0849,1.8597,0.4147,78.91,76.61,103.5,0.39,1.035
00:35:30,3.1360,0.1509,1.8637,0.4162,79.08,76.88,110.6,0.47,1.106
00:36:00,5.1480,0.0091,1.8648,0.4164,79.13,76.92,149.0,0.05,1.49
00:36:30,4.4790,0.9991,1.9032,0.4247,80.75,78.46,343.0,4.47,3.43
00:37:00,4.2300,0.9990,1.9386,0.4331,82.25,79.99,134.1,4.23,1.341
00:37:30,4.1680,0.9989,1.9733,0.4414,83.73,81.53,133.6,4.16,1.336
00:38:00,4.1340,0.9984,2.0079,0.4497,85.19,83.07,134.9,4.13,1.349
00:38:30,3.9870,0.9984,2.0411,0.4580,86.60,84.61,133.7,3.98,1.337
00:39:00,4.0970,0.8825,2.0564,0.4620,87.25,85.34,137.2,3.62,1.372
00:39:30,5.1470,0.0091,2.0622,0.4642,87.50,85.74,631.0,0.05,6.31
00:40:00,5.1470,0.0091,2.0689,0.4657,87.78,86.02,794.0,0.05,7.94
00:40:30,4.5710,0.8244,2.0797,0.4681,88.24,86.46,790.0,3.77,7.9
00:41:00,5.1480,0.0090,2.0829,0.4688,88.38,86.59,781.0,0.05,7.81
00:41:30,3.1190,0.6159,2.0925,0.4714,88.79,87.07,774.0,1.92,7.74
00:42:00,4.6000,0.8390,2.1035,0.4737,89.25,87.51,765.0,3.86,7.65
00:42:30,2.5050,0.1879,2.1051,0.4743,89.32,87.61,759.0,0.47,7.59
00:43:00,5.1500,0.0091,2.1067,0.4749,89.38,87.72,754.0,0.05,7.54
00:43:30,2.5090,0.1907,2.1082,0.4755,89.45,87.83,747.0,0.48,7.47
00:44:00,5.1470,0.0090,2.1086,0.4756,89.47,87.84,744.0,0.05,7.44
00:44:30,4.1190,0.9987,2.1445,0.4839,90.99,89.38,744.0,4.11,7.44
00:45:00,4.0020,0.9985,2.1781,0.4922,92.42,90.91,735.0,4.0,7.35
00:45:30,3.9370,0.9991,2.2001,0.4978,93.35,91.94,735.0,3.93,7.35
00:46:00,5.1490,0.0090,2.2005,0.4978,93.37,91.96,738.0,0.05,7.38
00:46:30,3.5750,0.2224,2.2053,0.4995,93.57,92.26,744.0,0.8,7.44
00:47:00,3.9370,0.9996,2.2275,0.5051,94.51,93.29,738.0,3.94,7.38
00:47:30,2.6670,0.4104,2.2345,0.5076,94.81,93.76,740.0,1.09,7.4
00:48:00,5.1330,0.0718,2.2415,0.5092,95.10,94.06,624.0,0.37,6.24
00:48:30,4.7650,0.0346,2.2475,0.5114,95.36,94.46,742.0,0.16,7.42
00:49:00,5.1490,0.0090,2.2491,0.5120,95.43,94.57,742.0,0.05,7.42
00:49:30,5.1460,0.0178,2.2570,0.5137,95.77,94.88,734.0,0.09,7.34
00:50:00,5.1480,0.0091,2.2585,0.5139,95.83,94.93,733.0,0.05,7.33
00:50:30,3.2540,0.3787,2.2695,0.5171,96.29,95.52,735.0,1.23,7.35
00:51:00,4.9030,0.6492,2.2805,0.5194,96.76,95.93,732.0,3.18,7.32
00:51:30,4.7970,0.6868,2.3036,0.5252,97.74,97.00,735.0,3.29,7.35
00:52:00,5.1480,0.0092,2.3064,0.5258,97.86,97.12,728.0,0.05,7.28
00:52:30,5.1480,0.0091,2.3136,0.5278,98.16,97.49,730.0,0.05,7.3
00:53:00,5.1480,0.0092,2.3198,0.5295,98.43,97.81,733.0,0.05,7.33
00:53:30,2.6500,0.3781,2.3256,0.5317,98.67,98.20,740.0,1.0,7.4
00:54:00,5.1480,0.0091,2.3360,0.5348,99.12,98.78,745.0,0.05,7.45
00:54:30,2.9930,0.4432,2.3427,0.5371,99.40,99.20,116.8,1.33,1.168
00:55:00,5.1490,0.0091,2.3485,0.5386,99.65,99.49,388.0,0.05,3.88
00:55:30,2.6760,0.3769,2.3568,0.5414,100.00,100.00,497.0,1.01,4.97
00:55:40,4.1100,0.9984,2.3682,0.5442,100.48,100.51,143.2,4.1,1.432